; Refractive index spectrum for Ag by Hagemann
;
; 1) H.-J. Hagemann et al.. Optical constants from the far infrared to the x-ray region: Mg, Al, Cu, Ag, Au, Bi, C, and Al<sub>2</sub>O<sub>3</sub>, <a href="http://dx.doi.org/10.1364/JOSA.65.000742"><i>J. Opt. Soc. Am.</i> <b>65</b>, 742-744 (1975)</a><br>2) H.-J. Hagemann et al.. <a href="http://refractiveindex.info/download/data/1974/Hagemann 1974 - DESY report SR-74-7.pdf">DESY report SR-74/7 (1974)</a>
;
; lambda/nm    n     k
103.30 	1.608000 	0.587000 
112.70 	1.545000 	0.553000 
124.00 	1.462000 	0.557000 
137.80 	1.326000 	0.562000 
155.00 	1.160000 	0.753000 
165.30 	1.142000 	0.911000 
177.10 	1.178000 	1.060000 
190.70 	1.254000 	1.180000 
206.60 	1.339000 	1.280000 
225.40 	1.446000 	1.340000 
248.00 	1.549000 	1.350000 
261.00 	1.612000 	1.340000 
275.50 	1.694000 	1.280000 
288.30 	1.729000 	1.130000 
295.20 	1.752000 	1.060000 
302.40 	1.729000 	0.845000 
310.00 	1.615000 	0.599000 
317.90 	1.295000 	0.360000 
326.30 	0.727000 	0.304000 
328.90 	0.527000 	0.399000 
335.10 	0.300000 	0.765000 
344.40 	0.230000 	1.130000 
354.20 	0.211000 	1.420000 
381.50 	0.229000 	1.860000 
413.30 	0.226000 	2.280000 
495.90 	0.237000 	3.090000 
619.90 	0.269000 	4.180000 
826.60 	0.271000 	5.800000 
1240.00 	0.278000 	9.020000 
2480.00 	0.669000 	18.800000 
