; From SOPRA S.A. http://www.sopra-sa.com/indices.htm
; Filename    Symbol               Range (nm)     Description
; AGAINP1     (Al.1Ga.9)0.5In0.5P 225     1000    Aluminum Gallium Indium Phosphide (10% Al)
; lambda/nm       n         k
225.00 	1.52667000 	2.72096600 
227.50 	1.57522600 	2.77781200 
230.00 	1.62996800 	2.83651000 
232.50 	1.69203200 	2.89655100 
235.00 	1.76268100 	2.95710600 
237.50 	1.84324300 	3.01691300 
240.00 	1.93500000 	3.07415300 
242.50 	2.03899400 	3.12632300 
245.00 	2.15572400 	3.17018200 
247.50 	2.28473700 	3.20181300 
250.00 	2.42416000 	3.21691200 
252.50 	2.57033300 	3.21141000 
255.00 	2.71774900 	3.18236300 
257.50 	2.85955800 	3.12894000 
260.00 	2.98869200 	3.05304600 
262.50 	3.09909700 	2.95938700 
265.00 	3.18719300 	2.85440700 
267.50 	3.25211900 	2.74506400 
270.00 	3.29545200 	2.63753700 
272.50 	3.32037500 	2.53646600 
275.00 	3.33075400 	2.44475500 
277.50 	3.33043100 	2.36378500 
280.00 	3.32279800 	2.29381600 
282.50 	3.31062800 	2.23436800 
285.00 	3.29606300 	2.18456400 
287.50 	3.28068600 	2.14334800 
290.00 	3.26562900 	2.10963700 
292.50 	3.25166900 	2.08240100 
295.00 	3.23932400 	2.06070600 
297.50 	3.22891900 	2.04373100 
300.00 	3.22064900 	2.03076700 
302.50 	3.21461500 	2.02121200 
305.00 	3.21086300 	2.01455800 
307.50 	3.20940100 	2.01037700 
310.00 	3.21021600 	2.00831400 
312.50 	3.21329400 	2.00807200 
315.00 	3.21861900 	2.00940200 
317.50 	3.22618700 	2.01209100 
320.00 	3.23601200 	2.01596200 
322.50 	3.24812900 	2.02085100 
325.00 	3.26259000 	2.02659100 
327.50 	3.27942500 	2.03316600 
330.00 	3.29856100 	2.04087500 
332.50 	3.32065000 	2.04830900 
335.00 	3.34554700 	2.05594800 
337.50 	3.37343800 	2.06351900 
340.00 	3.40450500 	2.07071200 
342.50 	3.43892800 	2.07715300 
345.00 	3.47686000 	2.08238100 
347.50 	3.51840800 	2.08584900 
350.00 	3.56359700 	2.08692200 
352.50 	3.61233100 	2.08488100 
355.00 	3.66436400 	2.07895600 
357.50 	3.71925700 	2.06835600 
360.00 	3.77635900 	2.05233000 
362.50 	3.83480200 	2.03023900 
365.00 	3.89352700 	2.00161600 
367.50 	3.95132500 	1.96625300 
370.00 	4.00692800 	1.92423200 
372.50 	4.05909700 	1.87595800 
375.00 	4.10671800 	1.82212600 
377.50 	4.14889300 	1.76367400 
380.00 	4.18498800 	1.70170800 
382.50 	4.21466800 	1.63739700 
385.00 	4.23788200 	1.57188500 
387.50 	4.25481800 	1.50622800 
390.00 	4.26585100 	1.44138500 
392.50 	4.27150600 	1.37808500 
395.00 	4.27237200 	1.31691300 
397.50 	4.26907200 	1.25828400 
400.00 	4.26221900 	1.20247100 
402.50 	4.25239900 	1.14962400 
405.00 	4.24014200 	1.09979900 
407.50 	4.22592500 	1.05297100 
410.00 	4.21016700 	1.00906800 
412.50 	4.19322700 	0.96797600 
415.00 	4.17541300 	0.92955800 
417.50 	4.15697800 	0.89366100 
420.00 	4.13814000 	0.86013000 
422.50 	4.11907500 	0.82880600 
425.00 	4.09992700 	0.79953200 
427.50 	4.08081400 	0.77216000 
430.00 	4.06182800 	0.74655000 
432.50 	4.04307300 	0.72257900 
435.00 	4.02435700 	0.70000400 
437.50 	4.00562000 	0.67866400 
440.00 	3.98779600 	0.65888000 
442.50 	3.97030100 	0.64025800 
445.00 	3.95319300 	0.62272500 
447.50 	3.93648300 	0.60620000 
450.00 	3.92017500 	0.59060300 
452.50 	3.90427300 	0.57586400 
455.00 	3.88878600 	0.56192600 
457.50 	3.87370700 	0.54872500 
460.00 	3.85903000 	0.53620800 
462.50 	3.84475100 	0.52432600 
465.00 	3.83086100 	0.51303300 
467.50 	3.81735500 	0.50228700 
470.00 	3.80422200 	0.49205000 
472.50 	3.79145500 	0.48228800 
475.00 	3.77904300 	0.47296800 
477.50 	3.76697800 	0.46405900 
480.00 	3.75525000 	0.45553600 
482.50 	3.74384700 	0.44737100 
485.00 	3.73276200 	0.43954200 
487.50 	3.72198500 	0.43202600 
490.00 	3.71150700 	0.42480500 
492.50 	3.70131900 	0.41785800 
495.00 	3.69141000 	0.41116900 
497.50 	3.68177400 	0.40472200 
500.00 	3.67240000 	0.39850100 
502.50 	3.66328200 	0.39249300 
505.00 	3.65441000 	0.38668400 
507.50 	3.64577800 	0.38106200 
510.00 	3.63737600 	0.37561500 
512.50 	3.62919900 	0.37033500 
515.00 	3.62123700 	0.36520800 
517.50 	3.61348500 	0.36022600 
520.00 	3.60593900 	0.35538200 
522.50 	3.59858800 	0.35066500 
525.00 	3.59142900 	0.34607000 
527.50 	3.58445400 	0.34158600 
530.00 	3.57765800 	0.33720800 
532.50 	3.57103600 	0.33293000 
535.00 	3.56458000 	0.32874300 
537.50 	3.55828700 	0.32464100 
540.00 	3.55215000 	0.32062100 
542.50 	3.54616600 	0.31667600 
545.00 	3.54032800 	0.31280100 
547.50 	3.53463300 	0.30899000 
550.00 	3.52907500 	0.30523700 
552.50 	3.52364900 	0.30154000 
555.00 	3.51835200 	0.29789300 
557.50 	3.51317900 	0.29429100 
560.00 	3.50812500 	0.29073000 
562.50 	3.50318600 	0.28720600 
565.00 	3.49835700 	0.28371500 
567.50 	3.49363500 	0.28025200 
570.00 	3.48901600 	0.27681300 
572.50 	3.48449300 	0.27339500 
575.00 	3.48006400 	0.26999400 
577.50 	3.47572300 	0.26660400 
580.00 	3.47146700 	0.26322300 
582.50 	3.46729000 	0.25984700 
585.00 	3.46318600 	0.25647000 
587.50 	3.45915200 	0.25309000 
590.00 	3.45518100 	0.24970200 
592.50 	3.45126700 	0.24630300 
595.00 	3.44740300 	0.24288800 
597.50 	3.44358200 	0.23945300 
600.00 	3.43979600 	0.23599400 
602.50 	3.43603500 	0.23250700 
605.00 	3.43228900 	0.22899000 
607.50 	3.42854600 	0.22544000 
610.00 	3.42479200 	0.22185500 
612.50 	3.42101300 	0.21823600 
615.00 	3.41719100 	0.21458600 
617.50 	3.41330600 	0.21091000 
620.00 	3.40933800 	0.20722200 
622.50 	3.40526700 	0.20353800 
625.00 	3.40107700 	0.19988400 
627.50 	3.39675500 	0.19629300 
630.00 	3.39230600 	0.19280400 
632.50 	3.38773900 	0.18945400 
635.00 	3.38308300 	0.18627500 
637.50 	3.37837100 	0.18328900 
640.00 	3.37364400 	0.18050300 
642.50 	3.36893200 	0.17791200 
645.00 	3.36426700 	0.17550300 
647.50 	3.35966800 	0.17325800 
650.00 	3.35515000 	0.17115900 
652.50 	3.35072200 	0.16919000 
655.00 	3.34638400 	0.16733200 
657.50 	3.34214000 	0.16557200 
660.00 	3.33798800 	0.16389800 
662.50 	3.33392600 	0.16229900 
665.00 	3.32995300 	0.16076800 
667.50 	3.32606400 	0.15929800 
670.00 	3.32225700 	0.15788100 
672.50 	3.31852800 	0.15651200 
675.00 	3.31487500 	0.15518900 
677.50 	3.31129500 	0.15390600 
680.00 	3.30778600 	0.15266000 
682.50 	3.30434300 	0.15144900 
685.00 	3.30096500 	0.15027000 
687.50 	3.29765000 	0.14912200 
690.00 	3.29439500 	0.14800100 
692.50 	3.29119700 	0.14690600 
695.00 	3.28805700 	0.14583700 
697.50 	3.28497000 	0.14479100 
700.00 	3.28193400 	0.14376700 
702.50 	3.27895100 	0.14276500 
705.00 	3.27601600 	0.14178300 
707.50 	3.27312900 	0.14082100 
710.00 	3.27028900 	0.13987700 
712.50 	3.26749200 	0.13895000 
715.00 	3.26474000 	0.13804100 
717.50 	3.26203100 	0.13714800 
720.00 	3.25936200 	0.13627200 
722.50 	3.25673500 	0.13541000 
725.00 	3.25414600 	0.13456300 
727.50 	3.25159500 	0.13373000 
730.00 	3.24908200 	0.13291100 
732.50 	3.24660500 	0.13210600 
735.00 	3.24416400 	0.13131300 
737.50 	3.24175600 	0.13053300 
740.00 	3.23938100 	0.12976500 
742.50 	3.23704100 	0.12900900 
745.00 	3.23473300 	0.12826400 
747.50 	3.23245500 	0.12753000 
750.00 	3.23020900 	0.12680700 
752.50 	3.22799300 	0.12609500 
755.00 	3.22580500 	0.12539300 
757.50 	3.22364700 	0.12470100 
760.00 	3.22151800 	0.12401900 
762.50 	3.21941500 	0.12334700 
765.00 	3.21734000 	0.12268300 
767.50 	3.21529100 	0.12202900 
770.00 	3.21326800 	0.12138300 
772.50 	3.21127000 	0.12074700 
775.00 	3.20929800 	0.12011800 
777.50 	3.20735000 	0.11949900 
780.00 	3.20542500 	0.11888700 
782.50 	3.20352400 	0.11828200 
785.00 	3.20164700 	0.11768600 
787.50 	3.19979200 	0.11709800 
790.00 	3.19795900 	0.11651700 
792.50 	3.19614900 	0.11594300 
795.00 	3.19435900 	0.11537600 
797.50 	3.19259000 	0.11481700 
800.00 	3.19084200 	0.11426300 
802.50 	3.18911500 	0.11371700 
805.00 	3.18740700 	0.11317700 
807.50 	3.18571900 	0.11264400 
810.00 	3.18405000 	0.11211700 
812.50 	3.18240000 	0.11159600 
815.00 	3.18076800 	0.11108100 
817.50 	3.17915600 	0.11057200 
820.00 	3.17756100 	0.11007000 
822.50 	3.17598300 	0.10957200 
825.00 	3.17442300 	0.10908000 
827.50 	3.17288000 	0.10859400 
830.00 	3.17135400 	0.10811300 
832.50 	3.16984400 	0.10763800 
835.00 	3.16835100 	0.10716800 
837.50 	3.16687400 	0.10670300 
840.00 	3.16541200 	0.10624300 
842.50 	3.16396500 	0.10578800 
845.00 	3.16253400 	0.10533800 
847.50 	3.16111900 	0.10489300 
850.00 	3.15971800 	0.10445100 
852.50 	3.15833000 	0.10401600 
855.00 	3.15695800 	0.10358400 
857.50 	3.15560000 	0.10315800 
860.00 	3.15425700 	0.10273500 
862.50 	3.15292600 	0.10231600 
865.00 	3.15160900 	0.10190200 
867.50 	3.15030500 	0.10149300 
870.00 	3.14901400 	0.10108800 
872.50 	3.14773700 	0.10068500 
875.00 	3.14647200 	0.10028800 
877.50 	3.14522000 	0.09989500 
880.00 	3.14398000 	0.09950500 
882.50 	3.14275100 	0.09911900 
885.00 	3.14153600 	0.09873700 
887.50 	3.14033200 	0.09835900 
890.00 	3.13914000 	0.09798400 
892.50 	3.13795900 	0.09761200 
895.00 	3.13678900 	0.09724400 
897.50 	3.13563000 	0.09688100 
900.00 	3.13448300 	0.09651900 
902.50 	3.13334700 	0.09616200 
905.00 	3.13222100 	0.09580800 
907.50 	3.13110600 	0.09545700 
910.00 	3.13000100 	0.09510900 
912.50 	3.12890600 	0.09476500 
915.00 	3.12782200 	0.09442400 
917.50 	3.12674700 	0.09408600 
920.00 	3.12568300 	0.09375000 
922.50 	3.12462900 	0.09341800 
925.00 	3.12358300 	0.09308900 
927.50 	3.12254800 	0.09276300 
930.00 	3.12152200 	0.09244000 
932.50 	3.12050500 	0.09211900 
935.00 	3.11949700 	0.09180100 
937.50 	3.11849800 	0.09148600 
940.00 	3.11750900 	0.09117400 
942.50 	3.11652700 	0.09086500 
945.00 	3.11555600 	0.09055800 
947.50 	3.11459200 	0.09025300 
950.00 	3.11363600 	0.08995200 
952.50 	3.11268900 	0.08965300 
955.00 	3.11175000 	0.08935600 
957.50 	3.11082000 	0.08906200 
960.00 	3.10989700 	0.08877000 
962.50 	3.10898200 	0.08848100 
965.00 	3.10807600 	0.08819400 
967.50 	3.10717700 	0.08791000 
970.00 	3.10628400 	0.08762800 
972.50 	3.10540100 	0.08734800 
975.00 	3.10452400 	0.08707000 
977.50 	3.10365500 	0.08679500 
980.00 	3.10279300 	0.08652200 
982.50 	3.10193900 	0.08625000 
985.00 	3.10109100 	0.08598200 
987.50 	3.10025100 	0.08571500 
990.00 	3.09941800 	0.08545000 
992.50 	3.09859100 	0.08518800 
995.00 	3.09777100 	0.08492800 
997.50 	3.09695800 	0.08466900 
1000.00 	3.09615200 	0.08441300 
