; From SOPRA S.A. http://www.sopra-sa.com/indices.htm
; Filename    Symbol               Range (nm)     Description
; AGAINP7     (Al.7Ga.3)0.5In0.5P 225     1000    Aluminum Gallium Indium Phosphide (70% Al)
; lambda/nm       n         k
225.00 	1.55789400 	2.63876300 
227.50 	1.59827000 	2.69346800 
230.00 	1.64397600 	2.75137300 
232.50 	1.69630600 	2.81236100 
235.00 	1.75682200 	2.87604400 
237.50 	1.82736800 	2.94160500 
240.00 	1.91000900 	3.00759000 
242.50 	2.00688400 	3.07164800 
245.00 	2.11988500 	3.13023900 
247.50 	2.25007000 	3.17843700 
250.00 	2.39678500 	3.20999900 
252.50 	2.55664900 	3.21802000 
255.00 	2.72279200 	3.19641600 
257.50 	2.88513200 	3.14204500 
260.00 	3.03223900 	3.05660400 
262.50 	3.15413500 	2.94714600 
265.00 	3.24534800 	2.82416200 
267.50 	3.30558200 	2.69870000 
270.00 	3.33871600 	2.57974000 
272.50 	3.35076700 	2.47301700 
275.00 	3.34805700 	2.38118500 
277.50 	3.33611500 	2.30464100 
280.00 	3.31926600 	2.24244100 
282.50 	3.30064600 	2.19300100 
285.00 	3.28241800 	2.15454900 
287.50 	3.26600000 	2.12538100 
290.00 	3.25229300 	2.10397100 
292.50 	3.24184900 	2.08900800 
295.00 	3.23500200 	2.07939500 
297.50 	3.23195400 	2.07421400 
300.00 	3.23284600 	2.07269000 
302.50 	3.23774800 	2.07427700 
305.00 	3.24656500 	2.07895400 
307.50 	3.25998500 	2.08487500 
310.00 	3.27786400 	2.09224500 
312.50 	3.30040600 	2.10051600 
315.00 	3.32781700 	2.10910500 
317.50 	3.36030200 	2.11735100 
320.00 	3.39803200 	2.12448500 
322.50 	3.44110400 	2.12961900 
325.00 	3.48943500 	2.13173300 
327.50 	3.54278900 	2.12971800 
330.00 	3.60064700 	2.12240600 
332.50 	3.66217700 	2.10866000 
335.00 	3.72621600 	2.08747700 
337.50 	3.79128700 	2.05811400 
340.00 	3.85568800 	2.02020200 
342.50 	3.91760800 	1.97383400 
345.00 	3.97528900 	1.91959200 
347.50 	4.02720100 	1.85850500 
350.00 	4.07216100 	1.79195100 
352.50 	4.10942300 	1.72151200 
355.00 	4.13869400 	1.64881300 
357.50 	4.16008500 	1.57539100 
360.00 	4.17403500 	1.50259600 
362.50 	4.18121400 	1.43152700 
365.00 	4.18242100 	1.36301400 
367.50 	4.17850800 	1.29764500 
370.00 	4.17031600 	1.23577900 
372.50 	4.15863000 	1.17760200 
375.00 	4.14416200 	1.12315500 
377.50 	4.12753100 	1.07237700 
380.00 	4.10927100 	1.02514200 
382.50 	4.08982900 	0.98127000 
385.00 	4.06957600 	0.94055300 
387.50 	4.04881100 	0.90277300 
390.00 	4.02779400 	0.86773500 
392.50 	4.00671200 	0.83520900 
395.00 	3.98572300 	0.80499400 
397.50 	3.96494900 	0.77689600 
400.00 	3.94450700 	0.75074600 
402.50 	3.92424600 	0.72627900 
405.00 	3.90401200 	0.70325300 
407.50 	3.88487500 	0.68199100 
410.00 	3.86619700 	0.66206200 
412.50 	3.84803400 	0.64336600 
415.00 	3.83039500 	0.62579700 
417.50 	3.81328200 	0.60925900 
420.00 	3.79669700 	0.59366600 
422.50 	3.78063100 	0.57893800 
425.00 	3.76508100 	0.56500100 
427.50 	3.75003600 	0.55179000 
430.00 	3.73548300 	0.53924700 
432.50 	3.72141300 	0.52731400 
435.00 	3.70781200 	0.51594200 
437.50 	3.69466400 	0.50508700 
440.00 	3.68195800 	0.49470400 
442.50 	3.66967900 	0.48475800 
445.00 	3.65781300 	0.47521100 
447.50 	3.64634700 	0.46603000 
450.00 	3.63526400 	0.45718600 
452.50 	3.62455100 	0.44864800 
455.00 	3.61419900 	0.44039600 
457.50 	3.60419400 	0.43240200 
460.00 	3.59452000 	0.42464300 
462.50 	3.58516700 	0.41709900 
465.00 	3.57612200 	0.40974800 
467.50 	3.56737400 	0.40257300 
470.00 	3.55890900 	0.39555500 
472.50 	3.55071800 	0.38867700 
475.00 	3.54278800 	0.38192200 
477.50 	3.53510800 	0.37527500 
480.00 	3.52766800 	0.36871900 
482.50 	3.52045800 	0.36224000 
485.00 	3.51346400 	0.35582200 
487.50 	3.50667500 	0.34945100 
490.00 	3.50008200 	0.34311200 
492.50 	3.49367000 	0.33678800 
495.00 	3.48742800 	0.33046400 
497.50 	3.48134300 	0.32412500 
500.00 	3.47539800 	0.31775200 
502.50 	3.46957700 	0.31132700 
505.00 	3.46386100 	0.30483100 
507.50 	3.45822600 	0.29824200 
510.00 	3.45264600 	0.29153800 
512.50 	3.44708500 	0.28469500 
515.00 	3.44149600 	0.27768500 
517.50 	3.43582200 	0.27048400 
520.00 	3.42998400 	0.26307700 
522.50 	3.42387200 	0.25545800 
525.00 	3.41734300 	0.24766200 
527.50 	3.41023100 	0.23979700 
530.00 	3.40240200 	0.23209500 
532.50 	3.39386000 	0.22488200 
535.00 	3.38482300 	0.21845300 
537.50 	3.37562400 	0.21291000 
540.00 	3.36654900 	0.20816500 
542.50 	3.35775200 	0.20405600 
545.00 	3.34929000 	0.20042800 
547.50 	3.34116900 	0.19716300 
550.00 	3.33337000 	0.19417700 
552.50 	3.32587100 	0.19141100 
555.00 	3.31864700 	0.18882200 
557.50 	3.31167500 	0.18637800 
560.00 	3.30493500 	0.18405900 
562.50 	3.29840900 	0.18184500 
565.00 	3.29207900 	0.17972400 
567.50 	3.28593400 	0.17768500 
570.00 	3.27996100 	0.17572000 
572.50 	3.27414800 	0.17382200 
575.00 	3.26848800 	0.17198600 
577.50 	3.26296800 	0.17020400 
580.00 	3.25758600 	0.16847600 
582.50 	3.25233100 	0.16679700 
585.00 	3.24719800 	0.16516400 
587.50 	3.24218200 	0.16357300 
590.00 	3.23727700 	0.16202300 
592.50 	3.23247900 	0.16051200 
595.00 	3.22778200 	0.15903800 
597.50 	3.22318300 	0.15759800 
600.00 	3.21867900 	0.15619200 
602.50 	3.21426400 	0.15481800 
605.00 	3.20993700 	0.15347400 
607.50 	3.20569500 	0.15215900 
610.00 	3.20153300 	0.15087200 
612.50 	3.19744900 	0.14961300 
615.00 	3.19344300 	0.14837900 
617.50 	3.18950900 	0.14717100 
620.00 	3.18564700 	0.14598700 
622.50 	3.18185400 	0.14482600 
625.00 	3.17812800 	0.14368800 
627.50 	3.17446600 	0.14257200 
630.00 	3.17086800 	0.14147800 
632.50 	3.16733000 	0.14040300 
635.00 	3.16385300 	0.13934800 
637.50 	3.16043300 	0.13831300 
640.00 	3.15707100 	0.13729700 
642.50 	3.15376300 	0.13629900 
645.00 	3.15050700 	0.13531800 
647.50 	3.14730500 	0.13435500 
650.00 	3.14415300 	0.13340800 
652.50 	3.14105100 	0.13247700 
655.00 	3.13799800 	0.13156300 
657.50 	3.13499100 	0.13066300 
660.00 	3.13203000 	0.12977800 
662.50 	3.12911500 	0.12890800 
665.00 	3.12624300 	0.12805200 
667.50 	3.12341400 	0.12721100 
670.00 	3.12062700 	0.12638200 
672.50 	3.11788000 	0.12556600 
675.00 	3.11517400 	0.12476400 
677.50 	3.11250700 	0.12397400 
680.00 	3.10987800 	0.12319600 
682.50 	3.10728700 	0.12243000 
685.00 	3.10473200 	0.12167500 
687.50 	3.10221400 	0.12093200 
690.00 	3.09972900 	0.12019900 
692.50 	3.09727900 	0.11947800 
695.00 	3.09486400 	0.11876700 
697.50 	3.09248100 	0.11806700 
700.00 	3.09013000 	0.11737600 
702.50 	3.08781100 	0.11669600 
705.00 	3.08552300 	0.11602500 
707.50 	3.08326400 	0.11536400 
710.00 	3.08103600 	0.11471100 
712.50 	3.07883700 	0.11406800 
715.00 	3.07666600 	0.11343300 
717.50 	3.07452400 	0.11280700 
720.00 	3.07241000 	0.11219000 
722.50 	3.07032200 	0.11158100 
725.00 	3.06826000 	0.11097900 
727.50 	3.06622500 	0.11038700 
730.00 	3.06421600 	0.10980200 
732.50 	3.06223100 	0.10922400 
735.00 	3.06027100 	0.10865400 
737.50 	3.05833600 	0.10809100 
740.00 	3.05642300 	0.10753600 
742.50 	3.05453500 	0.10698700 
745.00 	3.05266800 	0.10644500 
747.50 	3.05082500 	0.10591000 
750.00 	3.04900300 	0.10538200 
752.50 	3.04720400 	0.10486100 
755.00 	3.04542400 	0.10434500 
757.50 	3.04366700 	0.10383600 
760.00 	3.04193000 	0.10333300 
762.50 	3.04021400 	0.10283700 
765.00 	3.03851700 	0.10234500 
767.50 	3.03683900 	0.10186000 
770.00 	3.03518100 	0.10138100 
772.50 	3.03354200 	0.10090700 
775.00 	3.03192200 	0.10043800 
777.50 	3.03031900 	0.09997500 
780.00 	3.02873500 	0.09951800 
782.50 	3.02716800 	0.09906600 
785.00 	3.02561900 	0.09861900 
787.50 	3.02408600 	0.09817600 
790.00 	3.02257200 	0.09773900 
792.50 	3.02107300 	0.09730700 
795.00 	3.01959100 	0.09687900 
797.50 	3.01812500 	0.09645600 
800.00 	3.01667500 	0.09603800 
802.50 	3.01524000 	0.09562300 
805.00 	3.01382100 	0.09521500 
807.50 	3.01241600 	0.09481000 
810.00 	3.01102600 	0.09440900 
812.50 	3.00965200 	0.09401300 
815.00 	3.00829200 	0.09362100 
817.50 	3.00694600 	0.09323300 
820.00 	3.00561400 	0.09284800 
822.50 	3.00429500 	0.09246800 
825.00 	3.00299000 	0.09209200 
827.50 	3.00169900 	0.09172000 
830.00 	3.00042100 	0.09135100 
832.50 	2.99915600 	0.09098600 
835.00 	2.99790300 	0.09062500 
837.50 	2.99666400 	0.09026800 
840.00 	2.99543600 	0.08991400 
842.50 	2.99422000 	0.08956400 
845.00 	2.99301700 	0.08921700 
847.50 	2.99182700 	0.08887300 
850.00 	2.99064700 	0.08853300 
852.50 	2.98947900 	0.08819600 
855.00 	2.98832300 	0.08786300 
857.50 	2.98717800 	0.08753200 
860.00 	2.98604400 	0.08720500 
862.50 	2.98492100 	0.08688100 
865.00 	2.98380900 	0.08655900 
867.50 	2.98270800 	0.08624200 
870.00 	2.98161600 	0.08592600 
872.50 	2.98053500 	0.08561400 
875.00 	2.97946500 	0.08530400 
877.50 	2.97840400 	0.08499800 
880.00 	2.97735400 	0.08469500 
882.50 	2.97631300 	0.08439400 
885.00 	2.97528300 	0.08409600 
887.50 	2.97426100 	0.08380100 
890.00 	2.97324800 	0.08350700 
892.50 	2.97224600 	0.08321700 
895.00 	2.97125300 	0.08293000 
897.50 	2.97026800 	0.08264400 
900.00 	2.96929300 	0.08236200 
902.50 	2.96832600 	0.08208200 
905.00 	2.96736800 	0.08180500 
907.50 	2.96641800 	0.08153000 
910.00 	2.96547700 	0.08125600 
912.50 	2.96454500 	0.08098600 
915.00 	2.96362100 	0.08071800 
917.50 	2.96270600 	0.08045200 
920.00 	2.96179700 	0.08018800 
922.50 	2.96089700 	0.07992700 
925.00 	2.96000400 	0.07966800 
927.50 	2.95912100 	0.07941100 
930.00 	2.95824400 	0.07915600 
932.50 	2.95737500 	0.07890300 
935.00 	2.95651400 	0.07865300 
937.50 	2.95565900 	0.07840400 
940.00 	2.95481300 	0.07815700 
942.50 	2.95397300 	0.07791300 
945.00 	2.95314100 	0.07767000 
947.50 	2.95231600 	0.07742900 
950.00 	2.95149700 	0.07719000 
952.50 	2.95068500 	0.07695300 
955.00 	2.94988100 	0.07671900 
957.50 	2.94908200 	0.07648600 
960.00 	2.94829100 	0.07625500 
962.50 	2.94750600 	0.07602500 
965.00 	2.94672800 	0.07579700 
967.50 	2.94595600 	0.07557100 
970.00 	2.94519000 	0.07534800 
972.50 	2.94443100 	0.07512500 
975.00 	2.94367700 	0.07490500 
977.50 	2.94293000 	0.07468500 
980.00 	2.94219000 	0.07446900 
982.50 	2.94145400 	0.07425300 
985.00 	2.94072500 	0.07403900 
987.50 	2.94000200 	0.07382600 
990.00 	2.93928400 	0.07361600 
992.50 	2.93857300 	0.07340600 
995.00 	2.93786700 	0.07319800 
997.50 	2.93716600 	0.07299300 
1000.00 	2.93647100 	0.07278800 
