; From SOPRA S.A. http://www.sopra-sa.com/indices.htm
; Filename    Symbol               Range (nm)     Description
; AGAINP6     (Al.6Ga.4)0.5In0.5P 225     1000    Aluminum Gallium Indium Phosphide (60% Al)
; lambda/nm       n         k
225.00 	1.57365400 	2.61159100 
227.50 	1.61342200 	2.66415600 
230.00 	1.65828400 	2.71975800 
232.50 	1.70948000 	2.77828500 
235.00 	1.76850700 	2.83936300 
237.50 	1.83712700 	2.90220300 
240.00 	1.91731300 	2.96540700 
242.50 	2.01110200 	3.02671400 
245.00 	2.12028400 	3.08273400 
247.50 	2.24584000 	3.12875700 
250.00 	2.38711500 	3.15883700 
252.50 	2.54085100 	3.16642800 
255.00 	2.70049800 	3.14578400 
257.50 	2.85649200 	3.09396900 
260.00 	2.99802400 	3.01260900 
262.50 	3.11566400 	2.90837300 
265.00 	3.20422300 	2.79115900 
267.50 	3.26338500 	2.67140500 
270.00 	3.29677200 	2.55761800 
272.50 	3.31004800 	2.45525500 
275.00 	3.30918800 	2.36686200 
277.50 	3.29942800 	2.29283800 
280.00 	3.28487300 	2.23229400 
282.50 	3.26849700 	2.18372500 
285.00 	3.25234200 	2.14544000 
287.50 	3.23773500 	2.11580700 
290.00 	3.22549800 	2.09336400 
292.50 	3.21611500 	2.07685400 
295.00 	3.20984900 	2.06522900 
297.50 	3.20682700 	2.05762400 
300.00 	3.20710400 	2.05332900 
302.50 	3.21069900 	2.05175900 
305.00 	3.21762400 	2.05242800 
307.50 	3.22791300 	2.05491000 
310.00 	3.24157000 	2.05894400 
312.50 	3.25849100 	2.06469800 
315.00 	3.27928800 	2.07053800 
317.50 	3.30381800 	2.07679300 
320.00 	3.33225100 	2.08302900 
322.50 	3.36476100 	2.08876400 
325.00 	3.40147000 	2.09342400 
327.50 	3.44248500 	2.09634300 
330.00 	3.48780500 	2.09675200 
332.50 	3.53729200 	2.09378500 
335.00 	3.59061800 	2.08651400 
337.50 	3.64721700 	2.07400100 
340.00 	3.70626300 	2.05536100 
342.50 	3.76666700 	2.02986900 
345.00 	3.82710700 	1.99705100 
347.50 	3.88611600 	1.95676200 
350.00 	3.94218800 	1.90924300 
352.50 	3.99390400 	1.85512500 
355.00 	4.04006300 	1.79538300 
357.50 	4.07977100 	1.73124200 
360.00 	4.11249600 	1.66406300 
362.50 	4.13806500 	1.59522000 
365.00 	4.15663100 	1.52599800 
367.50 	4.16860500 	1.45752100 
370.00 	4.17457100 	1.39070100 
372.50 	4.17522300 	1.32623900 
375.00 	4.17129200 	1.26463100 
377.50 	4.16350200 	1.20618500 
380.00 	4.15253100 	1.15106900 
382.50 	4.13899600 	1.09932600 
385.00 	4.12344300 	1.05090800 
387.50 	4.10634000 	1.00570500 
390.00 	4.08809800 	0.96359800 
392.50 	4.06904700 	0.92439500 
395.00 	4.04946700 	0.88791500 
397.50 	4.02958300 	0.85396900 
400.00 	4.00958200 	0.82236900 
402.50 	3.98960800 	0.79293500 
405.00 	3.96980600 	0.76550700 
407.50 	3.95004700 	0.73981900 
410.00 	3.93021700 	0.71563300 
412.50 	3.91134700 	0.69328700 
415.00 	3.89284500 	0.67233900 
417.50 	3.87477700 	0.65269000 
420.00 	3.85716100 	0.63423100 
422.50 	3.84001000 	0.61686400 
425.00 	3.82333400 	0.60050300 
427.50 	3.80713200 	0.58506300 
430.00 	3.79140200 	0.57046900 
432.50 	3.77614200 	0.55665600 
435.00 	3.76134500 	0.54356000 
437.50 	3.74700000 	0.53112400 
440.00 	3.73310100 	0.51929700 
442.50 	3.71963500 	0.50803000 
445.00 	3.70659200 	0.49728100 
447.50 	3.69396000 	0.48701000 
450.00 	3.68172600 	0.47717800 
452.50 	3.66987500 	0.46775100 
455.00 	3.65840400 	0.45870300 
457.50 	3.64729600 	0.45000100 
460.00 	3.63653800 	0.44162000 
462.50 	3.62612000 	0.43353400 
465.00 	3.61602900 	0.42572000 
467.50 	3.60625500 	0.41815700 
470.00 	3.59678400 	0.41082300 
472.50 	3.58760900 	0.40370100 
475.00 	3.57871800 	0.39677400 
477.50 	3.57009900 	0.39002400 
480.00 	3.56174400 	0.38343500 
482.50 	3.55364200 	0.37699100 
485.00 	3.54578300 	0.37067900 
487.50 	3.53815900 	0.36448500 
490.00 	3.53075800 	0.35839600 
492.50 	3.52357300 	0.35239800 
495.00 	3.51659300 	0.34647800 
497.50 	3.50980800 	0.34062500 
500.00 	3.50321000 	0.33482500 
502.50 	3.49679000 	0.32906600 
505.00 	3.49053500 	0.32333700 
507.50 	3.48443700 	0.31762300 
510.00 	3.47848200 	0.31191100 
512.50 	3.47266100 	0.30618800 
515.00 	3.46695700 	0.30043800 
517.50 	3.46135600 	0.29464700 
520.00 	3.45584200 	0.28880000 
522.50 	3.45039200 	0.28287900 
525.00 	3.44497900 	0.27686600 
527.50 	3.43957200 	0.27074100 
530.00 	3.43412700 	0.26448600 
532.50 	3.42859100 	0.25808800 
535.00 	3.42288900 	0.25153800 
537.50 	3.41692800 	0.24485200 
540.00 	3.41059200 	0.23808500 
542.50 	3.40376900 	0.23135900 
545.00 	3.39640100 	0.22487900 
547.50 	3.38855800 	0.21888300 
550.00 	3.38043900 	0.21353700 
552.50 	3.37228000 	0.20886400 
555.00 	3.36426000 	0.20478200 
557.50 	3.35647500 	0.20117300 
560.00 	3.34895800 	0.19793100 
562.50 	3.34171200 	0.19497400 
565.00 	3.33472500 	0.19224000 
567.50 	3.32798200 	0.18968600 
570.00 	3.32146400 	0.18727900 
572.50 	3.31515400 	0.18499700 
575.00 	3.30903700 	0.18282100 
577.50 	3.30309800 	0.18073700 
580.00 	3.29732700 	0.17873400 
582.50 	3.29171300 	0.17680400 
585.00 	3.28624500 	0.17493900 
587.50 	3.28091600 	0.17313600 
590.00 	3.27571700 	0.17138600 
592.50 	3.27064300 	0.16968800 
595.00 	3.26568500 	0.16803700 
597.50 	3.26084000 	0.16643100 
600.00 	3.25610100 	0.16486600 
602.50 	3.25146400 	0.16334100 
605.00 	3.24692500 	0.16185300 
607.50 	3.24248100 	0.16040100 
610.00 	3.23812500 	0.15898200 
612.50 	3.23385700 	0.15759600 
615.00 	3.22967200 	0.15624100 
617.50 	3.22556700 	0.15491500 
620.00 	3.22154100 	0.15361700 
622.50 	3.21758900 	0.15234700 
625.00 	3.21371000 	0.15110300 
627.50 	3.20990100 	0.14988400 
630.00 	3.20616000 	0.14869000 
632.50 	3.20248500 	0.14751800 
635.00 	3.19887400 	0.14637100 
637.50 	3.19532500 	0.14524400 
640.00 	3.19183700 	0.14413900 
642.50 	3.18840700 	0.14305400 
645.00 	3.18503400 	0.14199000 
647.50 	3.18171500 	0.14094400 
650.00 	3.17845200 	0.13991700 
652.50 	3.17524200 	0.13890900 
655.00 	3.17208300 	0.13791800 
657.50 	3.16897300 	0.13694400 
660.00 	3.16591100 	0.13598700 
662.50 	3.16289800 	0.13504700 
665.00 	3.15993000 	0.13412200 
667.50 	3.15700900 	0.13321200 
670.00 	3.15413100 	0.13231800 
672.50 	3.15129500 	0.13143800 
675.00 	3.14850200 	0.13057200 
677.50 	3.14575000 	0.12972000 
680.00 	3.14303900 	0.12888100 
682.50 	3.14036600 	0.12805600 
685.00 	3.13773300 	0.12724400 
687.50 	3.13513700 	0.12644300 
690.00 	3.13257600 	0.12565500 
692.50 	3.13005200 	0.12487900 
695.00 	3.12756400 	0.12411500 
697.50 	3.12510900 	0.12336200 
700.00 	3.12268800 	0.12262000 
702.50 	3.12030100 	0.12188900 
705.00 	3.11794600 	0.12116800 
707.50 	3.11562300 	0.12045800 
710.00 	3.11333000 	0.11975700 
712.50 	3.11106700 	0.11906800 
715.00 	3.10883500 	0.11838700 
717.50 	3.10663100 	0.11771600 
720.00 	3.10445700 	0.11705400 
722.50 	3.10231100 	0.11640200 
725.00 	3.10019200 	0.11575800 
727.50 	3.09810000 	0.11512200 
730.00 	3.09603500 	0.11449600 
732.50 	3.09399600 	0.11387700 
735.00 	3.09198300 	0.11326700 
737.50 	3.08999400 	0.11266500 
740.00 	3.08803000 	0.11207000 
742.50 	3.08609100 	0.11148400 
745.00 	3.08417500 	0.11090400 
747.50 	3.08228200 	0.11033300 
750.00 	3.08041200 	0.10976800 
752.50 	3.07856600 	0.10921100 
755.00 	3.07674000 	0.10866000 
757.50 	3.07493600 	0.10811600 
760.00 	3.07315500 	0.10757900 
762.50 	3.07139300 	0.10704900 
765.00 	3.06965300 	0.10652400 
767.50 	3.06793300 	0.10600700 
770.00 	3.06623200 	0.10549500 
772.50 	3.06455200 	0.10499000 
775.00 	3.06289000 	0.10449000 
777.50 	3.06124800 	0.10399600 
780.00 	3.05962300 	0.10350800 
782.50 	3.05801700 	0.10302600 
785.00 	3.05643000 	0.10254900 
787.50 	3.05486000 	0.10207800 
790.00 	3.05330700 	0.10161200 
792.50 	3.05177300 	0.10115200 
795.00 	3.05025500 	0.10069600 
797.50 	3.04875300 	0.10024600 
800.00 	3.04726600 	0.09980000 
802.50 	3.04579800 	0.09936000 
805.00 	3.04434400 	0.09892400 
807.50 	3.04290600 	0.09849300 
810.00 	3.04148300 	0.09806700 
812.50 	3.04007600 	0.09764500 
815.00 	3.03868400 	0.09722800 
817.50 	3.03730600 	0.09681500 
820.00 	3.03594300 	0.09640700 
822.50 	3.03459300 	0.09600300 
825.00 	3.03325800 	0.09560300 
827.50 	3.03193700 	0.09520700 
830.00 	3.03062900 	0.09481500 
832.50 	3.02933500 	0.09442800 
835.00 	3.02805400 	0.09404400 
837.50 	3.02678500 	0.09366400 
840.00 	3.02553000 	0.09328900 
842.50 	3.02428700 	0.09291600 
845.00 	3.02305700 	0.09254800 
847.50 	3.02183900 	0.09218300 
850.00 	3.02063300 	0.09182200 
852.50 	3.01943900 	0.09146400 
855.00 	3.01825700 	0.09111000 
857.50 	3.01708600 	0.09076000 
860.00 	3.01592700 	0.09041200 
862.50 	3.01478000 	0.09006800 
865.00 	3.01364300 	0.08972800 
867.50 	3.01251700 	0.08939000 
870.00 	3.01140200 	0.08905600 
872.50 	3.01029800 	0.08872500 
875.00 	3.00920400 	0.08839700 
877.50 	3.00812100 	0.08807200 
880.00 	3.00704800 	0.08775000 
882.50 	3.00598500 	0.08743100 
885.00 	3.00493100 	0.08711500 
887.50 	3.00388800 	0.08680200 
890.00 	3.00285400 	0.08649200 
892.50 	3.00183100 	0.08618400 
895.00 	3.00081600 	0.08588000 
897.50 	2.99981100 	0.08557800 
900.00 	2.99881500 	0.08527800 
902.50 	2.99782800 	0.08498200 
905.00 	2.99685000 	0.08468800 
907.50 	2.99588100 	0.08439600 
910.00 	2.99492000 	0.08410700 
912.50 	2.99396800 	0.08382100 
915.00 	2.99302500 	0.08353700 
917.50 	2.99209100 	0.08325600 
920.00 	2.99116400 	0.08297700 
922.50 	2.99024500 	0.08270000 
925.00 	2.98933500 	0.08242600 
927.50 	2.98843300 	0.08215400 
930.00 	2.98753800 	0.08188400 
932.50 	2.98665100 	0.08161700 
935.00 	2.98577300 	0.08135200 
937.50 	2.98490200 	0.08108900 
940.00 	2.98403700 	0.08082800 
942.50 	2.98318100 	0.08056900 
945.00 	2.98233200 	0.08031300 
947.50 	2.98149100 	0.08005800 
950.00 	2.98065600 	0.07980600 
952.50 	2.97982900 	0.07955500 
955.00 	2.97900700 	0.07930700 
957.50 	2.97819300 	0.07906000 
960.00 	2.97738700 	0.07881700 
962.50 	2.97658700 	0.07857400 
965.00 	2.97579200 	0.07833300 
967.50 	2.97500600 	0.07809500 
970.00 	2.97422600 	0.07785800 
972.50 	2.97345100 	0.07762300 
975.00 	2.97268400 	0.07738900 
977.50 	2.97192200 	0.07715900 
980.00 	2.97116700 	0.07692900 
982.50 	2.97041800 	0.07670100 
985.00 	2.96967500 	0.07647500 
987.50 	2.96893700 	0.07625100 
990.00 	2.96820700 	0.07602800 
992.50 	2.96748200 	0.07580700 
995.00 	2.96676300 	0.07558800 
997.50 	2.96604800 	0.07537100 
1000.00 	2.96534100 	0.07515500 
