; From SOPRA S.A. http://www.sopra-sa.com/indices.htm
; Filename    Symbol               Range (nm)     Description
; ALAS361T    AlAs                275      987    Aluminum Arsenide (Temp: 361 C)
; lambda/nm       n         k
275.83	4.31670000	2.94130000
276.75	4.32790000	2.89580000
277.68	4.33430000	2.84700000
278.62	4.33960000	2.79460000
279.56	4.34000000	2.74270000
280.51	4.33620000	2.69160000
281.46	4.32900000	2.64090000
282.43	4.31690000	2.59260000
283.39	4.30570000	2.54660000
284.37	4.29770000	2.50530000
285.35	4.29050000	2.46920000
286.34	4.28290000	2.43850000
287.34	4.27580000	2.41330000
288.34	4.27010000	2.39040000
289.35	4.26210000	2.36930000
290.36	4.25200000	2.35120000
291.39	4.24280000	2.33600000
292.42	4.23580000	2.32290000
293.46	4.23150000	2.31060000
294.50	4.22880000	2.29770000
295.55	4.22780000	2.28340000
296.62	4.22920000	2.26890000
297.68	4.23370000	2.25480000
298.76	4.24140000	2.24140000
299.84	4.25090000	2.23160000
300.93	4.26320000	2.22590000
302.03	4.27830000	2.22150000
303.14	4.29370000	2.21740000
304.26	4.30960000	2.21310000
305.38	4.32750000	2.20770000
306.51	4.34780000	2.20070000
307.66	4.36930000	2.19190000
308.80	4.39200000	2.18150000
309.96	4.41800000	2.16930000
311.13	4.44680000	2.15530000
312.31	4.47770000	2.14020000
313.49	4.50870000	2.12400000
314.68	4.53900000	2.10670000
315.89	4.57140000	2.08730000
317.10	4.60590000	2.06390000
318.32	4.64070000	2.03710000
319.55	4.67570000	2.00570000
320.79	4.71120000	1.97000000
322.04	4.74730000	1.93090000
323.30	4.78410000	1.88590000
324.57	4.81790000	1.83800000
325.85	4.84440000	1.79010000
327.14	4.86440000	1.74130000
328.44	4.87990000	1.69040000
329.75	4.89070000	1.63630000
331.07	4.89730000	1.57950000
332.40	4.90200000	1.51970000
333.74	4.90550000	1.45760000
335.10	4.90810000	1.39370000
336.46	4.91040000	1.32800000
337.83	4.90910000	1.26410000
339.22	4.90160000	1.20190000
340.62	4.88980000	1.14020000
342.03	4.87400000	1.08180000
343.45	4.85430000	1.02650000
344.88	4.83220000	0.97357000
346.33	4.80840000	0.92466000
347.78	4.78270000	0.87967000
349.25	4.75540000	0.83802000
350.74	4.72670000	0.79992000
352.23	4.69730000	0.76442000
353.74	4.66810000	0.72996000
355.26	4.63940000	0.69718000
356.79	4.61020000	0.66746000
358.34	4.58090000	0.63964000
359.90	4.55210000	0.61310000
361.47	4.52390000	0.58910000
363.06	4.49660000	0.56707000
364.66	4.47030000	0.54595000
366.28	4.44470000	0.52602000
367.91	4.41960000	0.50677000
369.55	4.39560000	0.48747000
371.21	4.37280000	0.46803000
372.89	4.35050000	0.44849000
374.58	4.32830000	0.42976000
376.28	4.30610000	0.41263000
378.00	4.28410000	0.39675000
379.74	4.26240000	0.38148000
381.49	4.24090000	0.36666000
383.26	4.21960000	0.35225000
385.05	4.19890000	0.33800000
386.85	4.17860000	0.32460000
388.67	4.15880000	0.31191000
390.50	4.13970000	0.29877000
392.36	4.12100000	0.28541000
394.23	4.10270000	0.27238000
396.12	4.08480000	0.25974000
398.03	4.06720000	0.24764000
399.95	4.04980000	0.23649000
401.90	4.03240000	0.22589000
403.86	4.01460000	0.21548000
405.84	3.99640000	0.20583000
407.85	3.97850000	0.19559000
409.87	3.96230000	0.18363000
411.91	3.94740000	0.17109000
413.97	3.93210000	0.15898000
416.06	3.91510000	0.14718000
418.16	3.89620000	0.13569000
420.29	3.87770000	0.12577000
422.44	3.86350000	0.11757000
424.61	3.85210000	0.10998000
426.80	3.83770000	0.10230000
429.01	3.82050000	0.09487600
431.25	3.80400000	0.08824400
433.51	3.78870000	0.08216300
435.80	3.77280000	0.07646700
438.11	3.75560000	0.07158000
440.44	3.73840000	0.06762800
442.80	3.72390000	0.06388800
445.19	3.71090000	0.05958200
447.60	3.69670000	0.05515800
450.04	3.68320000	0.05079000
452.50	3.67050000	0.04508700
454.99	3.65750000	0.03887900
457.51	3.64490000	0.03382300
460.06	3.63180000	0.02925800
462.63	3.61820000	0.02456800
465.24	3.60390000	0.01990300
467.87	3.58880000	0.01528600
470.53	3.57420000	0.01054900
473.23	3.55960000	0.00549100
475.95	3.54430000	0.00142500
478.71	3.52960000	0.00000000
481.50	3.51570000	0.00000000
484.32	3.50230000	0.00000000
487.17	3.48900000	0.00000000
490.06	3.47540000	0.00000000
492.98	3.46380000	0.00000000
495.94	3.45340000	0.00000000
498.93	3.44190000	0.00000000
501.96	3.43140000	0.00000000
505.03	3.42270000	0.00000000
508.14	3.41270000	0.00000000
511.28	3.40150000	0.00000000
514.46	3.39210000	0.00000000
517.68	3.38370000	0.00000000
520.95	3.37390000	0.00000000
524.25	3.36440000	0.00000000
527.60	3.35650000	0.00000000
530.99	3.34950000	0.00000000
534.42	3.34130000	0.00000000
537.90	3.33260000	0.00000000
541.42	3.32470000	0.00000000
544.99	3.31620000	0.00000000
548.61	3.30790000	0.00000000
552.27	3.30050000	0.00000000
555.99	3.29390000	0.00000000
559.75	3.28820000	0.00000000
563.57	3.28110000	0.00000000
567.44	3.27280000	0.00000000
571.36	3.26600000	0.00000000
575.34	3.26080000	0.00000000
579.37	3.25430000	0.00000000
583.46	3.24710000	0.00000000
587.61	3.24150000	0.00000000
591.81	3.23600000	0.00000000
596.08	3.23000000	0.00000000
600.41	3.22330000	0.00000000
604.81	3.21670000	0.00000000
609.26	3.21090000	0.00000000
613.79	3.20440000	0.00000000
618.38	3.19810000	0.00000000
623.04	3.19260000	0.00000000
627.77	3.18790000	0.00000000
632.58	3.18340000	0.00000000
637.46	3.17810000	0.00000000
642.41	3.17290000	0.00000000
647.44	3.16790000	0.00000000
652.55	3.16360000	0.00000000
657.75	3.15940000	0.00000000
663.02	3.15450000	0.00000000
668.38	3.14900000	0.00000000
673.83	3.14290000	0.00000000
679.37	3.13760000	0.00000000
685.00	3.13380000	0.00000000
690.73	3.13000000	0.00000000
696.55	3.12490000	0.00000000
702.47	3.12060000	0.00000000
708.49	3.11770000	0.00000000
714.61	3.11350000	0.00000000
720.84	3.10800000	0.00000000
727.19	3.10390000	0.00000000
733.64	3.10060000	0.00000000
740.21	3.09600000	0.00000000
746.90	3.09210000	0.00000000
753.71	3.08890000	0.00000000
760.65	3.08450000	0.00000000
767.71	3.08000000	0.00000000
774.91	3.07640000	0.00000000
782.24	3.07350000	0.00000000
789.71	3.07060000	0.00000000
797.33	3.06710000	0.00000000
805.10	3.06360000	0.00000000
813.02	3.06030000	0.00000000
821.09	3.05760000	0.00000000
829.33	3.05430000	0.00000000
837.74	3.05040000	0.00000000
846.32	3.04790000	0.00000000
855.07	3.04550000	0.00000000
864.01	3.04240000	0.00000000
873.14	3.03930000	0.00000000
882.46	3.03560000	0.00000000
891.98	3.03130000	0.00000000
901.71	3.02840000	0.00000000
911.66	3.02690000	0.00000000
921.82	3.02480000	0.00000000
932.22	3.02200000	0.00000000
942.85	3.01930000	0.00000000
953.73	3.01660000	0.00000000
964.87	3.01330000	0.00000000
976.26	3.01000000	0.00000000
987.93	3.00810000	0.00000000
