; From SOPRA S.A. http://www.sopra-sa.com/indices.htm
; Filename    Symbol               Range (nm)     Description
; ALAS072T    AlAs                275      987    Aluminum Arsenide (Temp: 72 C)
; lambda/nm       n         k
275.83 	4.37100000 	2.59930000 
276.75 	4.35520000 	2.55550000 
277.68 	4.33790000 	2.51660000 
278.62 	4.31830000 	2.47720000 
279.56 	4.29690000 	2.43570000 
280.51 	4.27910000 	2.40130000 
281.46 	4.26310000 	2.37560000 
282.43 	4.24530000 	2.35490000 
283.39 	4.22690000 	2.33740000 
284.37 	4.21130000 	2.32370000 
285.35 	4.20210000 	2.31350000 
286.34 	4.19790000 	2.30490000 
287.34 	4.19410000 	2.30250000 
288.34 	4.19050000 	2.30440000 
289.35 	4.18930000 	2.30560000 
290.36 	4.18990000 	2.30810000 
291.39 	4.19200000 	2.31270000 
292.42 	4.19850000 	2.31960000 
293.46 	4.21210000 	2.33040000 
294.50 	4.23090000 	2.34140000 
295.55 	4.25190000 	2.34660000 
296.62 	4.27750000 	2.35090000 
297.68 	4.30930000 	2.35940000 
298.76 	4.34570000 	2.36730000 
299.84 	4.38600000 	2.36940000 
300.93 	4.42970000 	2.36720000 
302.03 	4.47480000 	2.36350000 
303.14 	4.52130000 	2.35420000 
304.26 	4.57000000 	2.33750000 
305.38 	4.62070000 	2.31630000 
306.51 	4.67320000 	2.29010000 
307.66 	4.72800000 	2.26090000 
308.80 	4.78460000 	2.23060000 
309.96 	4.83980000 	2.19660000 
311.13 	4.89270000 	2.15570000 
312.31 	4.94660000 	2.10840000 
313.49 	5.00150000 	2.05600000 
314.68 	5.05550000 	1.99440000 
315.89 	5.10830000 	1.92370000 
317.10 	5.15860000 	1.84790000 
318.32 	5.20280000 	1.76720000 
319.55 	5.23870000 	1.67900000 
320.79 	5.26530000 	1.58110000 
322.04 	5.27920000 	1.47490000 
323.30 	5.28330000 	1.36740000 
324.57 	5.27990000 	1.26730000 
325.85 	5.26110000 	1.17710000 
327.14 	5.22460000 	1.09500000 
328.44 	5.17340000 	1.02410000 
329.75 	5.11160000 	0.96706000 
331.07 	5.04620000 	0.91960000 
332.40 	4.98180000 	0.87506000 
333.74 	4.92080000 	0.83003000 
335.10 	4.86540000 	0.78582000 
336.46 	4.82040000 	0.74621000 
337.83 	4.78530000 	0.71251000 
339.22 	4.74940000 	0.68256000 
340.62 	4.71100000 	0.65405000 
342.03 	4.67360000 	0.62618000 
343.45 	4.63720000 	0.59940000 
344.88 	4.60350000 	0.57429000 
346.33 	4.57260000 	0.55020000 
347.78 	4.54300000 	0.52709000 
349.25 	4.51350000 	0.50681000 
350.74 	4.48480000 	0.48960000 
352.23 	4.45700000 	0.47425000 
353.74 	4.42880000 	0.46090000 
355.26 	4.40140000 	0.44734000 
356.79 	4.37600000 	0.43101000 
358.34 	4.35200000 	0.41459000 
359.90 	4.32890000 	0.39942000 
361.47 	4.30660000 	0.38413000 
363.06 	4.28510000 	0.36986000 
364.66 	4.26470000 	0.35659000 
366.28 	4.24480000 	0.34306000 
367.91 	4.22480000 	0.33067000 
369.55 	4.20500000 	0.32052000 
371.21 	4.18600000 	0.31055000 
372.89 	4.16800000 	0.29893000 
374.58 	4.15080000 	0.28676000 
376.28 	4.13470000 	0.27518000 
378.00 	4.11860000 	0.26349000 
379.74 	4.10180000 	0.25102000 
381.49 	4.08440000 	0.23875000 
383.26 	4.06710000 	0.22783000 
385.05 	4.05170000 	0.21731000 
386.85 	4.03720000 	0.20633000 
388.67 	4.02170000 	0.19478000 
390.50 	4.00600000 	0.18165000 
392.36 	3.99030000 	0.16753000 
394.23 	3.97390000 	0.15462000 
396.12 	3.95570000 	0.14334000 
398.03 	3.93720000 	0.13279000 
399.95 	3.92090000 	0.12213000 
401.90 	3.90350000 	0.11151000 
403.86 	3.88510000 	0.10140000 
405.84 	3.86760000 	0.09146800 
407.85 	3.84920000 	0.08144800 
409.87 	3.83100000 	0.07156400 
411.91 	3.81400000 	0.06239300 
413.97 	3.79500000 	0.05392500 
416.06 	3.77470000 	0.04622500 
418.16 	3.75520000 	0.04011900 
420.29 	3.73580000 	0.03556500 
422.44 	3.71800000 	0.03158100 
424.61 	3.70210000 	0.02674600 
426.80 	3.68600000 	0.02086200 
429.01 	3.66920000 	0.01516300 
431.25 	3.65280000 	0.00968500 
433.51 	3.63610000 	0.00443100 
435.80 	3.61790000 	0.00099800 
438.11 	3.59860000 	0.00000000 
440.44 	3.58030000 	0.00000000 
442.80 	3.56480000 	0.00000000 
445.19 	3.55100000 	0.00000000 
447.60 	3.53620000 	0.00000000 
450.04 	3.52190000 	0.00000000 
452.50 	3.50890000 	0.00000000 
454.99 	3.49720000 	0.00000000 
457.51 	3.48660000 	0.00000000 
460.06 	3.47560000 	0.00000000 
462.63 	3.46410000 	0.00000000 
465.24 	3.45200000 	0.00000000 
467.87 	3.43950000 	0.00000000 
470.53 	3.42810000 	0.00000000 
473.23 	3.41770000 	0.00000000 
475.95 	3.40830000 	0.00000000 
478.71 	3.40000000 	0.00000000 
481.50 	3.39100000 	0.00000000 
484.32 	3.38150000 	0.00000000 
487.17 	3.37140000 	0.00000000 
490.06 	3.36070000 	0.00000000 
492.98 	3.35180000 	0.00000000 
495.94 	3.34390000 	0.00000000 
498.93 	3.33460000 	0.00000000 
501.96 	3.32620000 	0.00000000 
505.03 	3.31950000 	0.00000000 
508.14 	3.31140000 	0.00000000 
511.28 	3.30190000 	0.00000000 
514.46 	3.29410000 	0.00000000 
517.68 	3.28730000 	0.00000000 
520.95 	3.27910000 	0.00000000 
524.25 	3.27090000 	0.00000000 
527.60 	3.26440000 	0.00000000 
530.99 	3.25880000 	0.00000000 
534.42 	3.25180000 	0.00000000 
537.90 	3.24420000 	0.00000000 
541.42 	3.23750000 	0.00000000 
544.99 	3.23000000 	0.00000000 
548.61 	3.22270000 	0.00000000 
552.27 	3.21640000 	0.00000000 
555.99 	3.21080000 	0.00000000 
559.75 	3.20620000 	0.00000000 
563.57 	3.20010000 	0.00000000 
567.44 	3.19250000 	0.00000000 
571.36 	3.18650000 	0.00000000 
575.34 	3.18230000 	0.00000000 
579.37 	3.17660000 	0.00000000 
583.46 	3.17020000 	0.00000000 
587.61 	3.16530000 	0.00000000 
591.81 	3.16060000 	0.00000000 
596.08 	3.15530000 	0.00000000 
600.41 	3.14920000 	0.00000000 
604.81 	3.14320000 	0.00000000 
609.26 	3.13810000 	0.00000000 
613.79 	3.13230000 	0.00000000 
618.38 	3.12660000 	0.00000000 
623.04 	3.12170000 	0.00000000 
627.77 	3.11760000 	0.00000000 
632.58 	3.11350000 	0.00000000 
637.46 	3.10890000 	0.00000000 
642.41 	3.10420000 	0.00000000 
647.44 	3.09970000 	0.00000000 
652.55 	3.09600000 	0.00000000 
657.75 	3.09230000 	0.00000000 
663.02 	3.08790000 	0.00000000 
668.38 	3.08290000 	0.00000000 
673.83 	3.07720000 	0.00000000 
679.37 	3.07230000 	0.00000000 
685.00 	3.06890000 	0.00000000 
690.73 	3.06560000 	0.00000000 
696.55 	3.06100000 	0.00000000 
702.47 	3.05700000 	0.00000000 
708.49 	3.05460000 	0.00000000 
714.61 	3.05080000 	0.00000000 
720.84 	3.04560000 	0.00000000 
727.19 	3.04190000 	0.00000000 
733.64 	3.03890000 	0.00000000 
740.21 	3.03460000 	0.00000000 
746.90 	3.03110000 	0.00000000 
753.71 	3.02830000 	0.00000000 
760.65 	3.02410000 	0.00000000 
767.71 	3.02000000 	0.00000000 
774.91 	3.01670000 	0.00000000 
782.24 	3.01410000 	0.00000000 
789.71 	3.01160000 	0.00000000 
797.33 	3.00840000 	0.00000000 
805.10 	3.00520000 	0.00000000 
813.02 	3.00220000 	0.00000000 
821.09 	2.99980000 	0.00000000 
829.33 	2.99680000 	0.00000000 
837.74 	2.99310000 	0.00000000 
846.32 	2.99090000 	0.00000000 
855.07 	2.98870000 	0.00000000 
864.01 	2.98590000 	0.00000000 
873.14 	2.98310000 	0.00000000 
882.46 	2.97960000 	0.00000000 
891.98 	2.97550000 	0.00000000 
901.71 	2.97280000 	0.00000000 
911.66 	2.97160000 	0.00000000 
921.82 	2.96970000 	0.00000000 
932.22 	2.96710000 	0.00000000 
942.85 	2.96460000 	0.00000000 
953.73 	2.96210000 	0.00000000 
964.87 	2.95900000 	0.00000000 
976.26 	2.95590000 	0.00000000 
987.93 	2.95420000 	0.00000000 
