; From SOPRA S.A. http://www.sopra-sa.com/indices.htm
; Filename    Symbol               Range (nm)     Description
; ALAS028T    AlAs                275      987    Aluminum Arsenide (Temp: 28 C)
; lambda/nm       n         k
275.83 	4.37880000 	2.51200000 
276.75 	4.35590000 	2.46740000 
277.68 	4.33170000 	2.42900000 
278.62 	4.30800000 	2.39420000 
279.56 	4.28150000 	2.36650000 
280.51 	4.25360000 	2.34820000 
281.46 	4.23120000 	2.33300000 
282.43 	4.22040000 	2.31520000 
283.39 	4.21180000 	2.30120000 
284.37 	4.19410000 	2.29570000 
285.35 	4.17570000 	2.29330000 
286.34 	4.16370000 	2.29150000 
287.34 	4.15520000 	2.29350000 
288.34 	4.15050000 	2.30120000 
289.35 	4.14730000 	2.31370000 
290.36 	4.14450000 	2.32830000 
291.39 	4.14790000 	2.34190000 
292.42 	4.16260000 	2.35230000 
293.46 	4.18480000 	2.36270000 
294.50 	4.20780000 	2.37570000 
295.55 	4.23440000 	2.38760000 
296.62 	4.26770000 	2.39970000 
297.68 	4.30800000 	2.41490000 
298.76 	4.35650000 	2.42850000 
299.84 	4.40930000 	2.43420000 
300.93 	4.46230000 	2.43000000 
302.03 	4.51800000 	2.41710000 
303.14 	4.57930000 	2.39750000 
304.26 	4.64100000 	2.37370000 
305.38 	4.69880000 	2.34560000 
306.51 	4.75470000 	2.31180000 
307.66 	4.81010000 	2.27490000 
308.80 	4.86600000 	2.23520000 
309.96 	4.92300000 	2.19130000 
311.13 	4.98090000 	2.14230000 
312.31 	5.03710000 	2.08550000 
313.49 	5.09350000 	2.02020000 
314.68 	5.15210000 	1.94690000 
315.89 	5.20580000 	1.86670000 
317.10 	5.25350000 	1.77640000 
318.32 	5.29590000 	1.67260000 
319.55 	5.32590000 	1.56200000 
320.79 	5.33870000 	1.45090000 
322.04 	5.33370000 	1.34290000 
323.30 	5.31260000 	1.24080000 
324.57 	5.27590000 	1.14550000 
325.85 	5.22710000 	1.06080000 
327.14 	5.16950000 	0.98964000 
328.44 	5.10520000 	0.93113000 
329.75 	5.04150000 	0.88065000 
331.07 	4.98210000 	0.83529000 
332.40 	4.92340000 	0.79841000 
333.74 	4.86600000 	0.76736000 
335.10 	4.81350000 	0.73607000 
336.46 	4.76850000 	0.70402000 
337.83 	4.73020000 	0.67158000 
339.22 	4.69410000 	0.64076000 
340.62 	4.65890000 	0.61320000 
342.03 	4.62600000 	0.58805000 
343.45 	4.59460000 	0.56450000 
344.88 	4.56340000 	0.54312000 
346.33 	4.53170000 	0.52478000 
347.78 	4.50050000 	0.50757000 
349.25 	4.47080000 	0.48978000 
350.74 	4.44320000 	0.47228000 
352.23 	4.41700000 	0.45541000 
353.74 	4.39120000 	0.43914000 
355.26 	4.36620000 	0.42478000 
356.79 	4.34290000 	0.41259000 
358.34 	4.32070000 	0.40011000 
359.90 	4.29910000 	0.38642000 
361.47 	4.27780000 	0.37312000 
363.06 	4.25730000 	0.36057000 
364.66 	4.23790000 	0.34776000 
366.28 	4.21950000 	0.33442000 
367.91 	4.20140000 	0.32182000 
369.55 	4.18280000 	0.31089000 
371.21 	4.16380000 	0.30046000 
372.89 	4.14500000 	0.28894000 
374.58 	4.12650000 	0.27616000 
376.28 	4.10840000 	0.26293000 
378.00 	4.09100000 	0.24955000 
379.74 	4.07380000 	0.23711000 
381.49 	4.05600000 	0.22661000 
383.26 	4.03860000 	0.21663000 
385.05 	4.02330000 	0.20630000 
386.85 	4.00870000 	0.19577000 
388.67 	3.99240000 	0.18458000 
390.50 	3.97580000 	0.17296000 
392.36 	3.96050000 	0.16145000 
394.23 	3.94610000 	0.15026000 
396.12 	3.93050000 	0.13919000 
398.03 	3.91410000 	0.12733000 
399.95 	3.89860000 	0.11492000 
401.90 	3.88170000 	0.10299000 
403.86 	3.86360000 	0.09107200 
405.84 	3.84560000 	0.07902400 
407.85 	3.82580000 	0.06758900 
409.87 	3.80610000 	0.05702100 
411.91 	3.78780000 	0.04728700 
413.97 	3.76740000 	0.03854000 
416.06 	3.74630000 	0.03126800 
418.16 	3.72690000 	0.02494800 
420.29 	3.70720000 	0.01829000 
422.44 	3.68680000 	0.01099900 
424.61 	3.66560000 	0.00447700 
426.80 	3.64360000 	0.00085700 
429.01 	3.62290000 	0.00000000 
431.25 	3.60510000 	0.00000000 
433.51 	3.58950000 	0.00000000 
435.80 	3.57410000 	0.00000000 
438.11 	3.55770000 	0.00000000 
440.44 	3.54120000 	0.00000000 
442.80 	3.52690000 	0.00000000 
445.19 	3.51380000 	0.00000000 
447.60 	3.49970000 	0.00000000 
450.04 	3.48590000 	0.00000000 
452.50 	3.47330000 	0.00000000 
454.99 	3.46180000 	0.00000000 
457.51 	3.45150000 	0.00000000 
460.06 	3.44060000 	0.00000000 
462.63 	3.42920000 	0.00000000 
465.24 	3.41740000 	0.00000000 
467.87 	3.40500000 	0.00000000 
470.53 	3.39360000 	0.00000000 
473.23 	3.38320000 	0.00000000 
475.95 	3.37390000 	0.00000000 
478.71 	3.36560000 	0.00000000 
481.50 	3.35670000 	0.00000000 
484.32 	3.34720000 	0.00000000 
487.17 	3.33710000 	0.00000000 
490.06 	3.32630000 	0.00000000 
492.98 	3.31740000 	0.00000000 
495.94 	3.30940000 	0.00000000 
498.93 	3.30000000 	0.00000000 
501.96 	3.29160000 	0.00000000 
505.03 	3.28490000 	0.00000000 
508.14 	3.27680000 	0.00000000 
511.28 	3.26710000 	0.00000000 
514.46 	3.25940000 	0.00000000 
517.68 	3.25250000 	0.00000000 
520.95 	3.24410000 	0.00000000 
524.25 	3.23590000 	0.00000000 
527.60 	3.22930000 	0.00000000 
530.99 	3.22370000 	0.00000000 
534.42 	3.21670000 	0.00000000 
537.90 	3.20890000 	0.00000000 
541.42 	3.20200000 	0.00000000 
544.99 	3.19460000 	0.00000000 
548.61 	3.18720000 	0.00000000 
552.27 	3.18070000 	0.00000000 
555.99 	3.17510000 	0.00000000 
559.75 	3.17030000 	0.00000000 
563.57 	3.16410000 	0.00000000 
567.44 	3.15640000 	0.00000000 
571.36 	3.15040000 	0.00000000 
575.34 	3.14600000 	0.00000000 
579.37 	3.14020000 	0.00000000 
583.46 	3.13370000 	0.00000000 
587.61 	3.12880000 	0.00000000 
591.81 	3.12400000 	0.00000000 
596.08 	3.11850000 	0.00000000 
600.41 	3.11230000 	0.00000000 
604.81 	3.10630000 	0.00000000 
609.26 	3.10100000 	0.00000000 
613.79 	3.09510000 	0.00000000 
618.38 	3.08920000 	0.00000000 
623.04 	3.08420000 	0.00000000 
627.77 	3.08000000 	0.00000000 
632.58 	3.07590000 	0.00000000 
637.46 	3.07110000 	0.00000000 
642.41 	3.06640000 	0.00000000 
647.44 	3.06170000 	0.00000000 
652.55 	3.05790000 	0.00000000 
657.75 	3.05410000 	0.00000000 
663.02 	3.04970000 	0.00000000 
668.38 	3.04460000 	0.00000000 
673.83 	3.03870000 	0.00000000 
679.37 	3.03370000 	0.00000000 
685.00 	3.03030000 	0.00000000 
690.73 	3.02680000 	0.00000000 
696.55 	3.02200000 	0.00000000 
702.47 	3.01800000 	0.00000000 
708.49 	3.01550000 	0.00000000 
714.61 	3.01160000 	0.00000000 
720.84 	3.00620000 	0.00000000 
727.19 	3.00240000 	0.00000000 
733.64 	2.99940000 	0.00000000 
740.21 	2.99500000 	0.00000000 
746.90 	2.99140000 	0.00000000 
753.71 	2.98850000 	0.00000000 
760.65 	2.98430000 	0.00000000 
767.71 	2.98000000 	0.00000000 
774.91 	2.97660000 	0.00000000 
782.24 	2.97390000 	0.00000000 
789.71 	2.97130000 	0.00000000 
797.33 	2.96800000 	0.00000000 
805.10 	2.96480000 	0.00000000 
813.02 	2.96160000 	0.00000000 
821.09 	2.95920000 	0.00000000 
829.33 	2.95610000 	0.00000000 
837.74 	2.95230000 	0.00000000 
846.32 	2.95000000 	0.00000000 
855.07 	2.94770000 	0.00000000 
864.01 	2.94480000 	0.00000000 
873.14 	2.94190000 	0.00000000 
882.46 	2.93840000 	0.00000000 
891.98 	2.93410000 	0.00000000 
901.71 	2.93130000 	0.00000000 
911.66 	2.93010000 	0.00000000 
921.82 	2.92810000 	0.00000000 
932.22 	2.92550000 	0.00000000 
942.85 	2.92290000 	0.00000000 
953.73 	2.92030000 	0.00000000 
964.87 	2.91710000 	0.00000000 
976.26 	2.91390000 	0.00000000 
987.93 	2.91220000 	0.00000000 
