; From SOPRA S.A. http://www.sopra-sa.com/indices.htm
; Filename    Symbol               Range (nm)     Description
; ALGAAS6     Al0.590Ga0.410As    206     2479    Aluminum Gallium Arsenide (60% Al)
; lambda/nm       n         k
206.64	1.38522500	2.41968100
207.33	1.37425800	2.43886200
208.03	1.38473400	2.44404800
208.73	1.37602500	2.45656300
209.43	1.37132900	2.47176400
210.14	1.37038100	2.48582000
210.86	1.37122200	2.49512800
211.58	1.36910900	2.51133900
212.30	1.36584500	2.53508000
213.03	1.36810300	2.54780400
213.77	1.37039900	2.56502100
214.51	1.37411700	2.58844900
215.25	1.37867900	2.60555000
216.00	1.37996800	2.62479600
216.76	1.38609900	2.64685800
217.52	1.38910300	2.66900100
218.28	1.39268300	2.69004400
219.06	1.39857600	2.71322100
219.83	1.40700200	2.73641300
220.61	1.41196900	2.75995000
221.40	1.42194400	2.78461000
222.20	1.43088200	2.81043700
222.99	1.44235200	2.83674600
223.80	1.45239700	2.86062600
224.61	1.46256600	2.88843300
225.43	1.47496600	2.91531800
226.25	1.48950700	2.94217800
227.08	1.50282300	2.97060800
227.91	1.51740600	2.99858500
228.75	1.53517900	3.02974900
229.60	1.55344500	3.05921700
230.46	1.57210100	3.08952000
231.32	1.59196700	3.12001300
232.18	1.61415900	3.15205000
233.05	1.63647200	3.18434900
233.93	1.66049500	3.21666200
234.82	1.68598100	3.25048200
235.71	1.71268900	3.28442900
236.61	1.74041000	3.31926200
237.52	1.77257500	3.35440900
238.43	1.80496900	3.39187100
239.35	1.83884300	3.42893300
240.28	1.87727700	3.46550500
241.22	1.91790600	3.50381700
242.16	1.96121500	3.54188200
243.11	2.00710200	3.58109000
244.07	2.05689000	3.62035500
245.03	2.11211100	3.65898800
246.00	2.17153100	3.69764800
246.98	2.23723900	3.73571800
247.97	2.30443300	3.77190300
248.97	2.38258600	3.80203100
249.97	2.46582700	3.83172600
250.98	2.55478100	3.85575600
252.00	2.64644700	3.86997600
253.03	2.73993400	3.88072400
254.07	2.83151600	3.88339200
255.11	2.92402200	3.88179100
256.17	3.01590300	3.88018300
257.23	3.11337200	3.87688700
258.30	3.22066100	3.86632300
259.38	3.33502100	3.84401500
260.47	3.45232700	3.80283500
261.57	3.56146900	3.75001500
262.68	3.66542200	3.68960300
263.80	3.76242100	3.61726400
264.93	3.85809400	3.53676200
266.06	3.94709100	3.44331700
267.21	4.02240600	3.33680200
268.37	4.07985600	3.22356300
269.53	4.12032000	3.10655400
270.71	4.14435100	2.99326900
271.90	4.15511000	2.88770100
273.10	4.15289500	2.78947400
274.30	4.14270600	2.69873800
275.52	4.12739200	2.61565700
276.75	4.10914900	2.54344000
277.99	4.08538100	2.47805700
279.25	4.06462000	2.41817700
280.51	4.03988600	2.36528500
281.78	4.01485300	2.31796300
283.07	3.99031500	2.27510500
284.37	3.96785900	2.23730400
285.68	3.94684800	2.20115200
287.00	3.92382700	2.17101200
288.34	3.90326300	2.14220700
289.69	3.88312000	2.11770000
291.05	3.86434200	2.09464600
292.42	3.84784900	2.07343300
293.80	3.83118200	2.05468400
295.20	3.81538600	2.03820900
296.62	3.80177200	2.02326100
298.04	3.78947200	2.00958600
299.48	3.77793900	1.99832100
300.93	3.76793400	1.98732900
302.40	3.75820300	1.97825900
303.89	3.75032100	1.96921100
305.38	3.74314000	1.96214800
306.89	3.73705100	1.95567400
308.42	3.73178000	1.95080400
309.96	3.72846500	1.94663600
311.52	3.72517300	1.94157500
313.09	3.72202900	1.93975600
314.68	3.72234100	1.93745700
316.29	3.72287600	1.93660500
317.91	3.72495800	1.93533200
319.55	3.72669800	1.93599400
321.21	3.73042200	1.93636900
322.88	3.73616400	1.93817100
324.57	3.74302200	1.94061200
326.28	3.75049200	1.94394900
328.00	3.76045800	1.94824600
329.75	3.77277500	1.95340300
331.51	3.78572300	1.95839800
333.29	3.80287600	1.96566200
335.10	3.82156900	1.97264200
336.92	3.84415800	1.97989700
338.76	3.87041300	1.98738100
340.62	3.90110900	1.99432400
342.50	3.93712800	1.99920600
344.40	3.97670900	2.00207200
346.33	4.02279800	2.00053800
348.27	4.07140500	1.99227200
350.24	4.12447200	1.97491200
352.23	4.17400800	1.95381600
354.24	4.22379900	1.92446000
356.28	4.26865300	1.89355800
358.34	4.31067500	1.85849000
360.42	4.34728700	1.82526400
362.53	4.38625300	1.78976600
364.66	4.42929000	1.75370200
366.82	4.47840300	1.71362800
369.00	4.52840100	1.66803400
371.21	4.58117200	1.60844600
373.45	4.62739400	1.53547100
375.71	4.66554400	1.44959000
378.00	4.68729200	1.35825400
380.32	4.69322300	1.26872600
382.67	4.68728200	1.18227800
385.05	4.67204200	1.10116100
387.45	4.64935400	1.02770400
389.89	4.62171200	0.96060800
392.36	4.59139300	0.90024300
394.86	4.56056000	0.84513200
397.39	4.52839700	0.79814700
399.95	4.49712200	0.75388900
402.55	4.46566100	0.71402900
405.18	4.43385000	0.67777400
407.85	4.40328100	0.64348700
410.55	4.37262500	0.61205300
413.28	4.34258500	0.58376500
416.06	4.31428200	0.55733900
418.87	4.28684800	0.53177200
421.72	4.26018000	0.51110600
424.61	4.23407400	0.48961600
427.54	4.20844700	0.46718600
430.50	4.18388300	0.44799300
433.51	4.15987900	0.43002600
436.57	4.13623700	0.41379900
439.66	4.11405300	0.39763000
442.80	4.09228600	0.38357100
445.99	4.07124100	0.36832000
449.22	4.05070500	0.35411800
452.50	4.03097600	0.34011000
455.83	4.01093700	0.32798800
459.20	3.99213500	0.31742500
462.63	3.97395100	0.30804500
466.11	3.95572400	0.29767400
469.64	3.94037900	0.28438300
473.23	3.92263000	0.27643300
476.87	3.90845800	0.26203800
480.56	3.89285100	0.25306600
484.32	3.87982100	0.24104500
488.13	3.86601300	0.23124100
492.00	3.85192100	0.22079400
495.94	3.83723000	0.20574500
499.94	3.82104800	0.19757100
504.00	3.80498600	0.18666900
508.14	3.78886200	0.17571000
512.34	3.77317200	0.16644500
516.60	3.75789800	0.15746400
520.95	3.74313400	0.15132800
525.36	3.72932400	0.14298600
529.85	3.71505600	0.13853400
534.42	3.70220100	0.13175500
539.07	3.68990700	0.12607900
543.79	3.67838300	0.11919000
548.61	3.66913400	0.11424400
553.51	3.66552600	0.10570000
558.49	3.66494300	0.08962700
563.57	3.65807800	0.06232900
568.74	3.63799700	0.03687200
574.01	3.61336700	0.02060500
579.37	3.58950300	0.01217600
584.84	3.56628200	0.00692400
590.41	3.54601600	0.00475700
596.08	3.52691000	0.00412200
601.87	3.51273600	0.00334700
607.77	3.49527200	0.00079000
613.79	3.48108100	0.00165700
619.93	3.46645700	0.00034900
626.19	3.45287300	0.00111900
632.58	3.44035500	0.00121800
639.10	3.42888800	0.00056000
645.76	3.41596400	0.00015600
652.55	3.40455800	0.00167500
659.50	3.39482800	0.00004900
666.59	3.38150500	0.00000000
673.83	3.37187100	0.00000000
681.24	3.36290000	0.00000000
688.81	3.35351000	0.00000000
696.55	3.34387600	0.00000000
704.46	3.33522900	0.00000000
712.56	3.32752000	0.00000000
720.84	3.32005900	0.00000000
729.32	3.31256900	0.00000000
738.01	3.30426100	0.00000000
746.90	3.29672500	0.00000000
756.01	3.28916200	0.00000000
765.34	3.28154400	0.00000000
774.91	3.27434400	0.00000000
784.72	3.26723300	0.00000000
794.78	3.25897600	0.00000000
805.10	3.25102800	0.00000000
815.69	3.24410000	0.00000000
826.57	3.23728300	0.00000000
