; From SOPRA S.A. http://www.sopra-sa.com/indices.htm
; Filename    Symbol               Range (nm)     Description
; ALGAAS7     Al0.700Ga0.300As    206     2479    Aluminum Gallium Arsenide (70% Al)
; lambda/nm       n         k
206.64	1.37713500	2.42638500
207.33	1.36339300	2.44071600
208.03	1.37288500	2.46759400
208.73	1.37142300	2.47072000
209.43	1.36767500	2.48494900
210.14	1.36605500	2.49328000
210.86	1.36336200	2.51161600
211.58	1.36596700	2.53360900
212.30	1.36354400	2.54390100
213.03	1.36341500	2.56269000
213.77	1.36518700	2.58069100
214.51	1.36832800	2.60098300
215.25	1.36831000	2.62092900
216.00	1.36863100	2.64260500
216.76	1.37148100	2.66696900
217.52	1.37475500	2.68831300
218.28	1.38109800	2.70912700
219.06	1.38362400	2.73340600
219.83	1.39391200	2.75968200
220.61	1.39934000	2.78244200
221.40	1.40702700	2.80860100
222.20	1.41566400	2.83626400
222.99	1.42616700	2.86165100
223.80	1.43675100	2.88872000
224.61	1.44758800	2.91811000
225.43	1.46145600	2.94610000
226.25	1.47376500	2.97385500
227.08	1.48966800	3.00443700
227.91	1.50586500	3.03646600
228.75	1.52399100	3.06764200
229.60	1.54434000	3.09857300
230.46	1.56227000	3.13326100
231.32	1.58500400	3.16638100
232.18	1.60818200	3.19840500
233.05	1.63337300	3.23283800
233.93	1.66154600	3.26869800
234.82	1.69042700	3.30378400
235.71	1.72119600	3.33796400
236.61	1.75632200	3.37398000
237.52	1.78867200	3.40881600
238.43	1.82835400	3.44515200
239.35	1.86726800	3.48063800
240.28	1.90939000	3.51484100
241.22	1.95326500	3.55034400
242.16	1.99957300	3.58554700
243.11	2.04895800	3.61999600
244.07	2.10116800	3.65500900
245.03	2.15660500	3.68890900
246.00	2.21619000	3.72261400
246.98	2.28262200	3.75673900
247.97	2.35433400	3.78839300
248.97	2.43099100	3.81598900
249.97	2.51269600	3.83945400
250.98	2.59862400	3.85864500
252.00	2.68693900	3.86938800
253.03	2.77674300	3.87333600
254.07	2.86256600	3.87199300
255.11	2.94875400	3.86515400
256.17	3.03282200	3.85951400
257.23	3.11895600	3.85647400
258.30	3.21355700	3.85342300
259.38	3.32056300	3.84449100
260.47	3.43857700	3.81881900
261.57	3.55480500	3.77184500
262.68	3.66110600	3.70752200
263.80	3.75830300	3.63705300
264.93	3.85067100	3.56384900
266.06	3.93840700	3.48244600
267.21	4.02372800	3.38449800
268.37	4.09505500	3.27113800
269.53	4.14415900	3.14940600
270.71	4.17110000	3.02851100
271.90	4.17847100	2.91641400
273.10	4.17364700	2.81505100
274.30	4.15998300	2.72485800
275.52	4.14185000	2.64470700
276.75	4.11885500	2.57455700
277.99	4.09606700	2.51266100
279.25	4.07381400	2.45770200
280.51	4.05120200	2.40841400
281.78	4.02819100	2.36498500
283.07	4.00622100	2.32624500
284.37	3.98590400	2.29135300
285.68	3.96640600	2.26038000
287.00	3.94919000	2.23225500
288.34	3.93208700	2.20607300
289.69	3.91578100	2.18354700
291.05	3.90195000	2.16228600
292.42	3.88866400	2.14353000
293.80	3.87740200	2.12675800
295.20	3.86769100	2.11117800
296.62	3.85862500	2.09748300
298.04	3.85083000	2.08505600
299.48	3.84484400	2.07416300
300.93	3.83996600	2.06390600
302.40	3.83543100	2.05521200
303.89	3.83291700	2.04717900
305.38	3.83183400	2.03964000
306.89	3.83188200	2.03321000
308.42	3.83273900	2.02772300
309.96	3.83550900	2.02277300
311.52	3.83884700	2.01883600
313.09	3.84415800	2.01495600
314.68	3.85084300	2.01239300
316.29	3.85897800	2.00972600
317.91	3.86816500	2.00846700
319.55	3.87982500	2.00712800
321.21	3.89262400	2.00677900
322.88	3.90818100	2.00662300
324.57	3.92629700	2.00606200
326.28	3.94665300	2.00633400
328.00	3.96954100	2.00634800
329.75	3.99811700	2.00557200
331.51	4.02881100	2.00392200
333.29	4.06414400	1.99996100
335.10	4.10316300	1.99299300
336.92	4.14513100	1.98147600
338.76	4.18922800	1.96422400
340.62	4.23388100	1.94016200
342.50	4.27779000	1.91112000
344.40	4.31892600	1.87746300
346.33	4.35716100	1.84076600
348.27	4.39307800	1.80163100
350.24	4.42837600	1.76228400
352.23	4.46416500	1.72125100
354.24	4.50202100	1.67762900
356.28	4.54128800	1.62967300
358.34	4.58022200	1.57430000
360.42	4.61644300	1.51012000
362.53	4.64622200	1.43607500
364.66	4.66529600	1.35662200
366.82	4.67305100	1.27464100
369.00	4.67014000	1.19359300
371.21	4.65745800	1.11689500
373.45	4.63826200	1.04599900
375.71	4.61460700	0.98054400
378.00	4.58800100	0.92287600
380.32	4.55948800	0.87126100
382.67	4.53124900	0.82126200
385.05	4.50160000	0.77604800
387.45	4.47111600	0.73534700
389.89	4.44023800	0.69881300
392.36	4.41034200	0.66297500
394.86	4.38096000	0.63159400
397.39	4.35252700	0.60174200
399.95	4.32525000	0.57380600
402.55	4.29840300	0.54702400
405.18	4.27203100	0.52380900
407.85	4.24587800	0.50120800
410.55	4.22036300	0.47970300
413.28	4.19578100	0.45957900
416.06	4.17179400	0.44016800
418.87	4.14858400	0.42301900
421.72	4.12645300	0.40724500
424.61	4.10457400	0.39015700
427.54	4.08384300	0.37420300
430.50	4.06370200	0.35787000
433.51	4.04363200	0.34395300
436.57	4.02398100	0.33024300
439.66	4.00533500	0.31917500
442.80	3.98744500	0.30671300
445.99	3.97010600	0.29365400
449.22	3.95277600	0.28263800
452.50	3.93695100	0.27217000
455.83	3.92151500	0.25879700
459.20	3.90639400	0.24561000
462.63	3.89054400	0.23288000
466.11	3.87310800	0.22175600
469.64	3.85653000	0.21000900
473.23	3.83875500	0.19726000
476.87	3.82299200	0.18415600
480.56	3.80604700	0.17307900
484.32	3.79049500	0.16280800
488.13	3.77511300	0.15095100
492.00	3.75974300	0.13991200
495.94	3.74549700	0.12923300
499.94	3.73176900	0.11780600
504.00	3.71930000	0.10774700
508.14	3.70823900	0.09563300
512.34	3.69973400	0.08530900
516.60	3.69589600	0.06992600
520.95	3.69143300	0.05276700
525.36	3.67377500	0.02753800
529.85	3.64660200	0.01292100
534.42	3.61930200	0.00420000
539.07	3.59466300	0.00191100
543.79	3.57185100	0.00022200
548.61	3.55194800	0.00112800
553.51	3.53333500	0.00103500
558.49	3.51746500	0.00167500
563.57	3.50039500	0.00029400
568.74	3.48463300	0.00093000
574.01	3.46867600	0.00024300
579.37	3.45302000	0.00068600
584.84	3.43888100	0.00126200
590.41	3.42463700	0.00024300
596.08	3.41000600	0.00063200
601.87	3.39689800	0.00000300
607.77	3.38397100	0.00000000
613.79	3.37260800	0.00000000
619.93	3.36053900	0.00000000
626.19	3.34820100	0.00000000
632.58	3.33763100	0.00000000
639.10	3.32624100	0.00000000
645.76	3.31572400	0.00000000
652.55	3.30575300	0.00000000
659.50	3.29568600	0.00000000
666.59	3.28653100	0.00000000
673.83	3.27872700	0.00000000
681.24	3.26952900	0.00000000
688.81	3.26139200	0.00000000
696.55	3.25379800	0.00000000
704.46	3.24608900	0.00000000
712.56	3.23902400	0.00000000
720.84	3.23151900	0.00000000
729.32	3.22455000	0.00000000
738.01	3.21685800	0.00000000
746.90	3.20921500	0.00000000
756.01	3.20213500	0.00000000
765.34	3.19457000	0.00000000
774.91	3.18768600	0.00000000
784.72	3.18073400	0.00000000
794.78	3.17376600	0.00000000
805.10	3.16678700	0.00000000
815.69	3.15979000	0.00000000
826.57	3.15277700	0.00000000
