; From SOPRA S.A. http://www.sopra-sa.com/indices.htm
; Filename    Symbol               Range (nm)     Description
; ALGAAS3     Al0.315Ga0.685As    206     2479    Aluminum Gallium Arsenide (30% Al)
; lambda/nm       n         k
206.64	1.34707200	2.44342700
207.33	1.33621700	2.45458600
208.03	1.33534300	2.46333600
208.73	1.33677900	2.47918600
209.43	1.34031800	2.49300800
210.14	1.33831900	2.50316500
210.86	1.33986400	2.51459100
211.58	1.34188100	2.52789500
212.30	1.34187100	2.54602600
213.03	1.34441400	2.56448400
213.77	1.35165900	2.57714000
214.51	1.35191400	2.59609800
215.25	1.35405600	2.61133400
216.00	1.35767100	2.63276500
216.76	1.36059200	2.64910500
217.52	1.36641600	2.66893100
218.28	1.37157300	2.69070000
219.06	1.37475400	2.71119000
219.83	1.37755600	2.73214300
220.61	1.38772300	2.75393200
221.40	1.39306000	2.77602200
222.20	1.40116200	2.79882300
222.99	1.41011000	2.82114800
223.80	1.41913800	2.84506700
224.61	1.42639500	2.86924900
225.43	1.43655000	2.89376700
226.25	1.44708900	2.92052500
227.08	1.45757500	2.94585700
227.91	1.47093500	2.97425200
228.75	1.48348600	3.00092900
229.60	1.49741800	3.03017200
230.46	1.51232900	3.06037500
231.32	1.52713900	3.09062100
232.18	1.54465100	3.12130100
233.05	1.56252200	3.15430400
233.93	1.58126800	3.18708000
234.82	1.60101700	3.22107400
235.71	1.62182700	3.25790900
236.61	1.64440800	3.29614800
237.52	1.66867600	3.33444600
238.43	1.69641700	3.37600900
239.35	1.72603000	3.41816400
240.28	1.75814100	3.46246600
241.22	1.79393800	3.50805200
242.16	1.83278000	3.55536700
243.11	1.87780100	3.60369200
244.07	1.92763000	3.65324200
245.03	1.98330100	3.70417800
246.00	2.04631400	3.75233800
246.98	2.11836400	3.80116800
247.97	2.19844300	3.84547600
248.97	2.28718800	3.88496700
249.97	2.38186000	3.91628000
250.98	2.48203000	3.93881100
252.00	2.58207300	3.95161700
253.03	2.68375600	3.95656500
254.07	2.78400000	3.95629000
255.11	2.88767100	3.94971700
256.17	2.99203800	3.93509100
257.23	3.09344400	3.91150000
258.30	3.19584900	3.88083100
259.38	3.29625600	3.84286700
260.47	3.39403500	3.79815000
261.57	3.48879700	3.74600000
262.68	3.58138700	3.68570000
263.80	3.66914800	3.61659000
264.93	3.75079700	3.53892900
266.06	3.82390700	3.45459600
267.21	3.88773000	3.36340100
268.37	3.94000900	3.27067700
269.53	3.98181300	3.17656500
270.71	4.01441200	3.08208100
271.90	4.03808400	2.99048500
273.10	4.05255100	2.90147400
274.30	4.05935100	2.81574400
275.52	4.06192800	2.73313400
276.75	4.05711500	2.65542200
277.99	4.04858800	2.58299700
279.25	4.03558400	2.51454800
280.51	4.01838900	2.45119500
281.78	3.99905200	2.39297400
283.07	3.97751400	2.33960100
284.37	3.95462800	2.29144800
285.68	3.93104800	2.24765100
287.00	3.90740000	2.20810200
288.34	3.88318300	2.17193800
289.69	3.85952400	2.13973100
291.05	3.83614900	2.11013600
292.42	3.81389300	2.08370900
293.80	3.79265800	2.05989700
295.20	3.77182700	2.03964800
296.62	3.75281900	2.02128900
298.04	3.73495500	2.00495300
299.48	3.71725300	1.99031200
300.93	3.70171500	1.97686500
302.40	3.68618100	1.96574500
303.89	3.67240000	1.95579700
305.38	3.65885400	1.94696800
306.89	3.64714100	1.93913700
308.42	3.63572100	1.93286800
309.96	3.62511100	1.92729900
311.52	3.61604500	1.92296100
313.09	3.60802100	1.91916700
314.68	3.60038800	1.91708600
316.29	3.59397100	1.91503800
317.91	3.58853500	1.91434400
319.55	3.58453800	1.91410600
321.21	3.58042100	1.91482400
322.88	3.57786300	1.91608500
324.57	3.57623100	1.91788900
326.28	3.57548600	1.92061800
328.00	3.57545800	1.92483500
329.75	3.57740600	1.92907900
331.51	3.58003200	1.93390900
333.29	3.58372000	1.93954800
335.10	3.58897700	1.94596900
336.92	3.59494700	1.95298700
338.76	3.60245300	1.96062900
340.62	3.61103200	1.96901800
342.50	3.62116000	1.97815900
344.40	3.63260500	1.98822100
346.33	3.64641400	1.99891800
348.27	3.66181700	2.01080500
350.24	3.67970000	2.02437400
352.23	3.70056300	2.03812600
354.24	3.72436900	2.05374500
356.28	3.75182300	2.07038000
358.34	3.78387900	2.08716400
360.42	3.82175000	2.10466900
362.53	3.86719700	2.12122200
364.66	3.92182100	2.13380500
366.82	3.98502500	2.13880700
369.00	4.05445400	2.13280500
371.21	4.12551200	2.11263300
373.45	4.19022600	2.08062100
375.71	4.24634900	2.04081400
378.00	4.29248900	2.00087400
380.32	4.33261800	1.96325300
382.67	4.37017900	1.93030200
385.05	4.40924300	1.90270800
387.45	4.45638200	1.87882500
389.89	4.51657100	1.85520900
392.36	4.59389400	1.82073000
394.86	4.68248300	1.76114400
397.39	4.76464700	1.67146100
399.95	4.82519600	1.55683300
402.55	4.85722400	1.43066600
405.18	4.86136500	1.30771000
407.85	4.84584000	1.19686800
410.55	4.81670200	1.09844500
413.28	4.78090500	1.01235400
416.06	4.74148400	0.93844000
418.87	4.70156000	0.87468000
421.72	4.66153000	0.81752400
424.61	4.62135900	0.76667900
427.54	4.58248600	0.72156800
430.50	4.54467400	0.68115100
433.51	4.50772200	0.64359600
436.57	4.47150200	0.61273700
439.66	4.43768700	0.58262000
442.80	4.40442100	0.55629000
445.99	4.37320400	0.53016700
449.22	4.34258500	0.50637800
452.50	4.31301600	0.48280100
455.83	4.28448700	0.46351500
459.20	4.25745900	0.44575000
462.63	4.23108900	0.43138100
466.11	4.20465400	0.41860700
469.64	4.18109000	0.39772300
473.23	4.15668600	0.38706900
476.87	4.13495600	0.36732400
480.56	4.11265600	0.35590800
484.32	4.09174000	0.34211400
488.13	4.07191800	0.32693300
492.00	4.05145100	0.31737000
495.94	4.03228200	0.30532700
499.94	4.01343700	0.29760300
504.00	3.99557300	0.28897200
508.14	3.97846500	0.27667400
512.34	3.96142200	0.26741100
516.60	3.94488000	0.25823600
520.95	3.92955100	0.24958000
525.36	3.91473200	0.24207100
529.85	3.89997800	0.23642200
534.42	3.88532100	0.23170500
539.07	3.87153900	0.22654600
543.79	3.85883700	0.22120200
548.61	3.84608400	0.21650300
553.51	3.83428900	0.21311700
558.49	3.82472300	0.20904600
563.57	3.81541500	0.20212400
568.74	3.80498400	0.19361500
574.01	3.79244100	0.18515500
579.37	3.77873600	0.17781800
584.84	3.76439700	0.17159800
590.41	3.75021400	0.16664400
596.08	3.73638800	0.16270100
601.87	3.72458800	0.15886700
607.77	3.71198400	0.15395700
613.79	3.70079200	0.15012000
619.93	3.69029900	0.14507500
626.19	3.68096100	0.13954800
632.58	3.67239600	0.13261500
639.10	3.66319400	0.12364200
645.76	3.65367800	0.11770100
652.55	3.64984700	0.11124600
659.50	3.65411300	0.10096100
666.59	3.65610100	0.06868400
673.83	3.63584400	0.04026400
681.24	3.61703000	0.02025400
688.81	3.59168300	0.00866600
696.55	3.57041800	0.00538500
704.46	3.55247000	0.00247200
712.56	3.53598300	0.00135000
720.84	3.52231300	0.00078000
729.32	3.50880700	0.00006000
738.01	3.49747000	0.00004600
746.90	3.48658700	0.00002700
756.01	3.47572700	0.00000000
765.34	3.46447700	0.00000000
774.91	3.45613900	0.00000000
784.72	3.44597100	0.00000000
794.78	3.43355700	0.00000000
805.10	3.42424400	0.00000000
815.69	3.41293700	0.00000000
826.57	3.40370700	0.00000000
