; From SOPRA S.A. http://www.sopra-sa.com/indices.htm
; Filename    Symbol               Range (nm)     Description
; ALGAAS10    AlAs                206     2479    Aluminum Gallium Arsenide (100% Al)
; lambda/nm       n         k
221.40	1.36000000	2.75000000
223.40	1.37062500	2.80625000
225.43	1.36000000	2.89000000
227.50	1.34937500	2.99625100
229.60	1.36000000	3.12000000
231.75	1.43000000	3.25875100
233.93	1.53000000	3.40000000
236.16	1.63625000	3.52937500
238.43	1.77000000	3.65000000
240.75	1.95999900	3.76499900
243.11	2.16000000	3.86000000
245.52	2.31687400	3.91250000
247.97	2.48000000	3.95000000
250.48	2.68500100	4.00187500
253.03	2.92000000	4.04000000
255.64	3.19750100	4.05562400
258.30	3.48000000	4.02000000
261.02	3.73875000	3.89687600
263.80	3.96000000	3.70000000
266.63	4.12249900	3.40375100
269.53	4.22000000	3.09000000
272.49	4.22500000	2.82875100
275.52	4.18000000	2.63000000
278.62	4.10937500	2.54625000
281.78	4.04000000	2.52000000
285.02	4.01000000	2.50625000
288.34	4.01000000	2.52000000
291.73	4.03562500	2.57187500
295.20	4.11000000	2.63000000
298.76	4.26812400	2.67375000
302.40	4.47000000	2.68000000
306.14	4.69062400	2.60937500
309.96	4.92000000	2.49000000
313.89	5.16062500	2.36125000
317.91	5.35000000	2.15000000
322.04	5.42187500	1.73799900
326.28	5.39000000	1.30000000
330.63	5.20937400	0.98743800
335.10	4.99000000	0.75200000
339.69	4.84500000	0.61281300
344.40	4.72000000	0.51900000
349.25	4.59437500	0.41825000
354.24	4.48000000	0.33400000
359.38	4.38562500	0.27781300
364.66	4.30000000	0.23300000
370.11	4.21625000	0.18118700
375.71	4.13000000	0.13900000
381.49	4.02937500	0.12125000
387.45	3.93000000	0.11500000
393.60	3.84504700	0.11316100
399.95	3.77000000	0.11300000
406.51	3.70518800	0.11067200
413.28	3.64925000	0.10241700
420.29	3.60125000	0.08036000
427.54	3.56025000	0.05300000
435.04	3.52531200	0.02341100
442.80	3.49550000	0.00000000
450.86	3.46987500	0.00331200
459.20	3.44750000	0.00000000
467.87	3.42743800	0.00000000
476.87	3.40875000	0.00000000
486.22	3.39050000	0.00000000
495.94	3.37175000	0.00000000
506.06	3.35156300	0.00000000
516.60	3.32900000	0.00000000
527.60	3.30132800	0.00000000
539.07	3.27300000	0.00000000
551.05	3.24812500	0.00000000
563.57	3.22500000	0.00000000
576.68	3.20337500	0.00000000
590.41	3.18300000	0.00000000
604.81	3.16343700	0.00000000
619.93	3.14500000	0.00000000
635.82	3.12800000	0.00000000
652.55	3.11200000	0.00000000
670.19	3.09656300	0.00000000
688.81	3.08200000	0.00000000
708.49	3.06862500	0.00000000
729.32	3.05600000	0.00000000
751.43	3.04375000	0.00000000
774.91	3.03200000	0.00000000
799.90	3.02075000	0.00000000
826.57	3.01000000	0.00000000
855.07	2.99968700	0.00000000
885.61	2.99000000	0.00000000
918.41	2.98125000	0.00000000
953.73	2.97300000	0.00000000
991.88	2.96481300	0.00000000
1033.21	2.95700000	0.00000000
1078.13	2.94981300	0.00000000
1127.14	2.94300000	0.00000000
1180.81	2.93631300	0.00000000
1239.85	2.93000000	0.00000000
1305.11	2.92431300	0.00000000
1377.61	2.91900000	0.00000000
1458.65	2.91381200	0.00000000
1549.81	2.90900000	0.00000000
1653.14	2.90481300	0.00000000
1771.22	2.90100000	0.00000000
1907.46	2.89737500	0.00000000
2066.42	2.89400000	0.00000000
2254.28	2.89087500	0.00000000
2479.70	2.88800000	0.00000000
