; From SOPRA S.A. http://www.sopra-sa.com/indices.htm
; Filename    Symbol               Range (nm)     Description
; ALGAAS4     Al0.419Ga0.581As    206     2479    Aluminum Gallium Arsenide (40% Al)
; lambda/nm       n         k
206.64	1.35272800	2.44008100
207.33	1.35025700	2.44312100
208.03	1.36075200	2.46694800
208.73	1.34678000	2.47264000
209.43	1.35517500	2.48498900
210.14	1.34898100	2.50627900
210.86	1.35217900	2.51470100
211.58	1.35440600	2.52562100
212.30	1.35803400	2.54410700
213.03	1.35825900	2.56216700
213.77	1.35674800	2.57445400
214.51	1.36276800	2.59553000
215.25	1.36411200	2.61503900
216.00	1.36740700	2.63602900
216.76	1.37302700	2.65253600
217.52	1.37715500	2.67428000
218.28	1.38255400	2.69629500
219.06	1.38892700	2.71630400
219.83	1.39228400	2.73834300
220.61	1.40022300	2.76327700
221.40	1.40656100	2.78287700
222.20	1.41585500	2.80811300
222.99	1.42422600	2.83267100
223.80	1.43328500	2.85691500
224.61	1.44480200	2.88210900
225.43	1.45629500	2.90786800
226.25	1.46827900	2.93412200
227.08	1.48038300	2.96214800
227.91	1.49340400	2.98881100
228.75	1.50783300	3.01837400
229.60	1.52253600	3.04661300
230.46	1.53930800	3.07566300
231.32	1.55691600	3.10652900
232.18	1.57320500	3.13720200
233.05	1.59244500	3.16917300
233.93	1.61344100	3.20119100
234.82	1.63493600	3.23623600
235.71	1.65830500	3.27036800
236.61	1.68373700	3.30770800
237.52	1.71006000	3.34628400
238.43	1.73966000	3.38448200
239.35	1.77111700	3.42509200
240.28	1.80453200	3.46581900
241.22	1.84042000	3.50886400
242.16	1.88201500	3.55324600
243.11	1.92629300	3.59829200
244.07	1.97672100	3.64207900
245.03	2.02955900	3.68789800
246.00	2.09044300	3.73539500
246.98	2.15894700	3.77866000
247.97	2.23401600	3.82154500
248.97	2.31762400	3.85815000
249.97	2.40716800	3.88960600
250.98	2.50168700	3.91430100
252.00	2.59794600	3.92832200
253.03	2.69470400	3.93652000
254.07	2.78546000	3.94020000
255.11	2.88479600	3.94050600
256.17	2.98508200	3.93767300
257.23	3.09037000	3.92879500
258.30	3.19949400	3.90881600
259.38	3.30944900	3.87835200
260.47	3.42098500	3.83833100
261.57	3.52928400	3.78543200
262.68	3.63399100	3.72204100
263.80	3.73276900	3.64563600
264.93	3.82187900	3.55727500
266.06	3.89771800	3.46251700
267.21	3.96236800	3.36230400
268.37	4.01404600	3.25919200
269.53	4.05399400	3.15656900
270.71	4.08168500	3.05591800
271.90	4.09943200	2.95761900
273.10	4.10830300	2.86326000
274.30	4.10885300	2.77468600
275.52	4.10250900	2.69145800
276.75	4.09242600	2.61445100
277.99	4.07707800	2.54155600
279.25	4.05837200	2.47647600
280.51	4.03706500	2.41712500
281.78	4.01422800	2.36314100
283.07	3.99282600	2.31430900
284.37	3.96756000	2.27044500
285.68	3.94401100	2.22997100
287.00	3.92041000	2.19387100
288.34	3.89740800	2.16112400
289.69	3.87446000	2.13167400
291.05	3.85257700	2.10504000
292.42	3.83213800	2.08134500
293.80	3.81205000	2.06001100
295.20	3.79372700	2.04050400
296.62	3.77644200	2.02340500
298.04	3.76059900	2.00801900
299.48	3.74471600	1.99482000
300.93	3.73110000	1.98243700
302.40	3.71866600	1.97150400
303.89	3.70564700	1.96214500
305.38	3.69463500	1.95399900
306.89	3.68410800	1.94707300
308.42	3.67516700	1.94136000
309.96	3.66688500	1.93634500
311.52	3.65973100	1.93137100
313.09	3.65321900	1.92816100
314.68	3.64796800	1.92619900
316.29	3.64333100	1.92464700
317.91	3.64004500	1.92378400
319.55	3.63805200	1.92406800
321.21	3.63681100	1.92487900
322.88	3.63687200	1.92641500
324.57	3.63743200	1.92868200
326.28	3.63956800	1.93145400
328.00	3.64257600	1.93529500
329.75	3.64695800	1.93967600
331.51	3.65299400	1.94463500
333.29	3.66001600	1.95126700
335.10	3.66808300	1.95807300
336.92	3.67775800	1.96579000
338.76	3.68964000	1.97394600
340.62	3.70243100	1.98353300
342.50	3.71797600	1.99371000
344.40	3.73629100	2.00497100
346.33	3.75785500	2.01730800
348.27	3.78263100	2.03045200
350.24	3.81119200	2.04474100
352.23	3.84614200	2.05840000
354.24	3.88653900	2.07156700
356.28	3.93425300	2.08146100
358.34	3.98859400	2.08586500
360.42	4.04955600	2.08164300
362.53	4.11105200	2.06751700
364.66	4.17220400	2.04243300
366.82	4.22737900	2.00957100
369.00	4.27599800	1.97331000
371.21	4.32006600	1.93608500
373.45	4.36010400	1.90150100
375.71	4.40099300	1.86995600
378.00	4.44546500	1.84113000
380.32	4.49855900	1.81118500
382.67	4.56253800	1.77354700
385.05	4.63434900	1.71944700
387.45	4.70596100	1.64031200
389.89	4.76213000	1.54059200
392.36	4.79531500	1.42852200
394.86	4.80636200	1.31572200
397.39	4.79833800	1.21218600
399.95	4.77809400	1.11906600
402.55	4.74979100	1.03503600
405.18	4.71635200	0.96129800
407.85	4.68045800	0.89524500
410.55	4.64286300	0.83742400
413.28	4.60528000	0.78560600
416.06	4.56795300	0.73953300
418.87	4.53243900	0.69693700
421.72	4.49734600	0.66096300
424.61	4.46352500	0.62635200
427.54	4.43022800	0.59590800
430.50	4.39812600	0.56708300
433.51	4.36682400	0.54009900
436.57	4.33688700	0.51563200
439.66	4.30796000	0.49388100
442.80	4.28043200	0.47154500
445.99	4.25353500	0.45172300
449.22	4.22700800	0.43331300
452.50	4.20167600	0.41731800
455.83	4.17700400	0.39959000
459.20	4.15341600	0.38527500
462.63	4.13049900	0.37241600
466.11	4.10832300	0.35730700
469.64	4.08712500	0.34889600
473.23	4.06626400	0.33282600
476.87	4.04725600	0.31869200
480.56	4.02804500	0.30494100
484.32	4.00948700	0.29642300
488.13	3.99167700	0.28437200
492.00	3.97376300	0.27410500
495.94	3.95650800	0.26760100
499.94	3.94047300	0.25617300
504.00	3.92487800	0.24598700
508.14	3.90980400	0.23675700
512.34	3.89536100	0.22704500
516.60	3.88116200	0.21898700
520.95	3.86817000	0.21097900
525.36	3.85562300	0.20428900
529.85	3.84430100	0.19662500
534.42	3.83285800	0.18762500
539.07	3.82012900	0.17760900
543.79	3.80549200	0.16695300
548.61	3.79046200	0.15724900
553.51	3.77503100	0.14840400
558.49	3.76037300	0.14121700
563.57	3.74697400	0.13387000
568.74	3.73373000	0.12657700
574.01	3.72098800	0.11955400
579.37	3.70863800	0.11285700
584.84	3.69732300	0.10634800
590.41	3.68625300	0.09966500
596.08	3.67685700	0.09358500
601.87	3.66800600	0.08565600
607.77	3.65918900	0.07950800
613.79	3.65678400	0.07507200
619.93	3.66551700	0.05717000
626.19	3.65613600	0.02058200
632.58	3.62387300	0.00386300
639.10	3.59692600	0.00161700
645.76	3.57561800	0.00286100
652.55	3.55926300	0.00260500
659.50	3.54162000	0.00073100
666.59	3.52440000	0.00001600
673.83	3.50794400	0.00000000
681.24	3.49273400	0.00000000
688.81	3.47932500	0.00000000
696.55	3.46609900	0.00000000
704.46	3.45375500	0.00000000
712.56	3.44225200	0.00000000
720.84	3.43160300	0.00000000
729.32	3.42185000	0.00000000
738.01	3.41137000	0.00000000
746.90	3.40192100	0.00000000
756.01	3.39429100	0.00000000
765.34	3.38576900	0.00000000
774.91	3.37811900	0.00000000
784.72	3.37034600	0.00000000
794.78	3.36242900	0.00000000
805.10	3.35476400	0.00000000
815.69	3.34733600	0.00000000
826.57	3.34065900	0.00000000
