; From SOPRA S.A. http://www.sopra-sa.com/indices.htm
; Filename    Symbol               Range (nm)     Description
; ALGAAS1     Al0.099Ga0.901As    206     2479    Aluminum Gallium Arsenide (10% Al)
; lambda/nm       n         k
206.64	1.31065600	2.45736600
207.33	1.30168400	2.49785200
208.03	1.31032600	2.49306800
208.73	1.31563200	2.51429400
209.43	1.31646100	2.52312600
210.14	1.31898800	2.53750800
210.86	1.32200900	2.55082000
211.58	1.32258500	2.56387600
212.30	1.32327100	2.57796200
213.03	1.32569200	2.59488000
213.77	1.32996800	2.60791400
214.51	1.33211100	2.62500500
215.25	1.33574300	2.64249000
216.00	1.33744600	2.65972000
216.76	1.33928000	2.67729700
217.52	1.34476400	2.69720600
218.28	1.35009100	2.71537200
219.06	1.35497700	2.73542000
219.83	1.36221400	2.75720200
220.61	1.36584600	2.77840000
221.40	1.37066900	2.80034600
222.20	1.37552600	2.82199200
222.99	1.38230200	2.84495900
223.80	1.39107600	2.86948200
224.61	1.39846400	2.89484200
225.43	1.40757800	2.92064900
226.25	1.41493500	2.94572400
227.08	1.42571500	2.97227800
227.91	1.43631700	2.99985600
228.75	1.44744200	3.02862600
229.60	1.45933700	3.05877900
230.46	1.47169400	3.08874300
231.32	1.48511900	3.12038800
232.18	1.49917300	3.15362700
233.05	1.51485000	3.18789600
233.93	1.53121000	3.22308700
234.82	1.54799600	3.26105600
235.71	1.56668700	3.30055100
236.61	1.58833100	3.34191500
237.52	1.60826400	3.38683500
238.43	1.63396300	3.43294600
239.35	1.66187500	3.48182800
240.28	1.69333800	3.53414300
241.22	1.72861500	3.58784100
242.16	1.77150200	3.64486900
243.11	1.81964100	3.70386300
244.07	1.87619700	3.76296900
245.03	1.94215100	3.82367300
246.00	2.01895500	3.88244700
246.98	2.10768600	3.93617100
247.97	2.20740800	3.98285500
248.97	2.31509300	4.01753100
249.97	2.42779600	4.03985600
250.98	2.54524800	4.04981900
252.00	2.65997600	4.04787400
253.03	2.77141400	4.03552900
254.07	2.87801100	4.01233500
255.11	2.98477500	3.98213100
256.17	3.08347100	3.94257200
257.23	3.17771900	3.89765400
258.30	3.26740800	3.84617600
259.38	3.34860900	3.78910800
260.47	3.42485700	3.72895200
261.57	3.49370200	3.66576200
262.68	3.55535900	3.60055500
263.80	3.61094800	3.53580600
264.93	3.66076700	3.47017100
266.06	3.70507900	3.40832700
267.21	3.74648100	3.34577900
268.37	3.78788200	3.28651800
269.53	3.82929600	3.22919500
270.71	3.87221200	3.16963700
271.90	3.91541300	3.10520400
273.10	3.95507800	3.03386900
274.30	3.98789200	2.95572100
275.52	4.01016800	2.87581700
276.75	4.02589300	2.79632900
277.99	4.03269300	2.71881900
279.25	4.03221200	2.64476700
280.51	4.02738200	2.57406900
281.78	4.01738900	2.50740100
283.07	4.00398000	2.44468500
284.37	3.98597200	2.38728800
285.68	3.96657600	2.33396700
287.00	3.94578600	2.28457200
288.34	3.92194600	2.24007100
289.69	3.89817500	2.19892300
291.05	3.87309500	2.16212600
292.42	3.84893200	2.12959700
293.80	3.82428900	2.10018100
295.20	3.80095600	2.07408200
296.62	3.77808100	2.05080600
298.04	3.75596700	2.03100400
299.48	3.73499800	2.01315400
300.93	3.71543100	1.99702100
302.40	3.69696400	1.98324000
303.89	3.67899300	1.97122500
305.38	3.66225600	1.96122700
306.89	3.64676900	1.95209400
308.42	3.63221100	1.94367700
309.96	3.61847400	1.93699900
311.52	3.60558900	1.93199500
313.09	3.59376200	1.92738500
314.68	3.58351200	1.92404400
316.29	3.57378400	1.92135100
317.91	3.56564100	1.91996700
319.55	3.55774500	1.91938000
321.21	3.55104400	1.91936100
322.88	3.54529600	1.92017900
324.57	3.54066500	1.92177600
326.28	3.53697500	1.92380800
328.00	3.53413900	1.92683800
329.75	3.53180600	1.93042600
331.51	3.53102800	1.93438100
333.29	3.53070500	1.93905500
335.10	3.53170100	1.94467300
336.92	3.53407700	1.95042700
338.76	3.53678200	1.95679000
340.62	3.54073400	1.96322600
342.50	3.54522900	1.97120500
344.40	3.55189500	1.97920200
346.33	3.55954600	1.98748000
348.27	3.56768300	1.99745200
350.24	3.57770600	2.00739200
352.23	3.58855300	2.01810100
354.24	3.60094000	2.02986300
356.28	3.61516700	2.04225700
358.34	3.63063700	2.05518200
360.42	3.64776400	2.06902900
362.53	3.66771000	2.08360600
364.66	3.68967900	2.09970200
366.82	3.71499600	2.11757500
369.00	3.74345400	2.13622100
371.21	3.77673100	2.15756300
373.45	3.81597100	2.17980300
375.71	3.86335300	2.20365900
378.00	3.92060700	2.22684900
380.32	3.99155900	2.24419800
382.67	4.07703200	2.24771300
385.05	4.16827200	2.22844600
387.45	4.25275700	2.18663200
389.89	4.31958600	2.13061700
392.36	4.36913600	2.07288600
394.86	4.40477800	2.02134500
397.39	4.43312500	1.97975300
399.95	4.45975000	1.94872200
402.55	4.49062300	1.92783600
405.18	4.53280700	1.91842400
407.85	4.60010300	1.91622600
410.55	4.70487900	1.90109700
413.28	4.83826500	1.83586600
416.06	4.95460100	1.70401200
418.87	5.01610100	1.54166100
421.72	5.02736900	1.38386800
424.61	5.00636500	1.24309900
427.54	4.96799600	1.12548500
430.50	4.92165300	1.02635700
433.51	4.87194600	0.94251500
436.57	4.82038300	0.87349500
439.66	4.77339900	0.81221700
442.80	4.72511500	0.76322400
445.99	4.68093900	0.71464700
449.22	4.63696000	0.67418300
452.50	4.59501400	0.63912100
455.83	4.55549700	0.60336100
459.20	4.51774200	0.57471800
462.63	4.48167000	0.54931300
466.11	4.44676000	0.52419800
469.64	4.41406200	0.50593900
473.23	4.38261700	0.48030200
476.87	4.35269500	0.46186500
480.56	4.32395600	0.44120600
484.32	4.29640200	0.42719500
488.13	4.27041700	0.40908200
492.00	4.24437100	0.39610500
495.94	4.21986100	0.38267200
499.94	4.19631700	0.37009900
504.00	4.17373600	0.35733700
508.14	4.15206100	0.34434200
512.34	4.13056000	0.33357000
516.60	4.11063900	0.31979200
520.95	4.09073900	0.30969700
525.36	4.07236200	0.29747000
529.85	4.05366500	0.28922300
534.42	4.03534900	0.28220400
539.07	4.01790000	0.27561900
543.79	4.00146200	0.26701100
548.61	3.98571200	0.25701200
553.51	3.96961600	0.25083100
558.49	3.95506500	0.24230900
563.57	3.94050600	0.23634800
568.74	3.92722100	0.22551800
574.01	3.91377000	0.21564100
579.37	3.90040500	0.20980700
584.84	3.88766500	0.20474900
590.41	3.87560600	0.19873700
596.08	3.86343400	0.19377200
601.87	3.85270800	0.18836500
607.77	3.84146100	0.18206400
613.79	3.83038400	0.17560200
619.93	3.82006300	0.17077000
626.19	3.81160200	0.16307200
632.58	3.80270300	0.15519900
639.10	3.79391100	0.14850100
645.76	3.78659300	0.13905200
652.55	3.77541200	0.12751400
659.50	3.76204500	0.11942500
666.59	3.74966300	0.11263600
673.83	3.73724400	0.10760700
681.24	3.72653800	0.10322500
688.81	3.71588900	0.09947900
696.55	3.70690100	0.09674900
704.46	3.69951900	0.09334900
712.56	3.69130800	0.08912800
720.84	3.68467300	0.08681900
729.32	3.67798100	0.08166000
738.01	3.67169600	0.07990800
746.90	3.66679800	0.07416400
756.01	3.66089300	0.07154100
765.34	3.65868800	0.06747400
774.91	3.66345300	0.05943000
784.72	3.66080400	0.02992400
794.78	3.63100500	0.00894700
805.10	3.60527800	0.00768700
815.69	3.58898100	0.00608100
826.57	3.57188700	0.00000000
