; From SOPRA S.A. http://www.sopra-sa.com/indices.htm
; Filename    Symbol               Range (nm)     Description
; ALGAAS5     Al0.491Ga0.509As    206     2479    Aluminum Gallium Arsenide (50% Al)
; lambda/nm       n         k
206.64	1.36607500	2.41844000
207.33	1.36192000	2.44042300
208.03	1.36593800	2.45171100
208.73	1.36407500	2.46467100
209.43	1.36221300	2.48013800
210.14	1.36197100	2.49276500
210.86	1.36378700	2.50441700
211.58	1.36198400	2.52408800
212.30	1.36324800	2.53806800
213.03	1.36211800	2.54951500
213.77	1.36417500	2.57207200
214.51	1.36761700	2.58869400
215.25	1.36813300	2.60841100
216.00	1.37174200	2.62492500
216.76	1.37652900	2.64330600
217.52	1.37876100	2.66603800
218.28	1.38597000	2.68801500
219.06	1.39174700	2.70942700
219.83	1.39665500	2.73181600
220.61	1.40577600	2.75684500
221.40	1.41203300	2.77959900
222.20	1.42171800	2.80355000
222.99	1.43085500	2.82694200
223.80	1.44107700	2.85215200
224.61	1.45145800	2.87883700
225.43	1.46164400	2.90330200
226.25	1.47496800	2.93104000
227.08	1.48734400	2.95593800
227.91	1.50180600	2.98882100
228.75	1.51772500	3.01505400
229.60	1.53251300	3.04459500
230.46	1.55164100	3.07322400
231.32	1.56858600	3.10386900
232.18	1.58925100	3.13442100
233.05	1.61012500	3.16508600
233.93	1.63212800	3.19917400
234.82	1.65303300	3.23252300
235.71	1.67921600	3.26581000
236.61	1.70387300	3.30345600
237.52	1.73209900	3.33743500
238.43	1.76292300	3.37753600
239.35	1.79470600	3.41527200
240.28	1.82900400	3.45443700
241.22	1.86618900	3.49465300
242.16	1.90703700	3.53617700
243.11	1.95126700	3.57907600
244.07	2.00012900	3.62082200
245.03	2.05279000	3.66346200
246.00	2.11356000	3.70622400
246.98	2.17882500	3.74823300
247.97	2.24985100	3.78674400
248.97	2.32901400	3.82203900
249.97	2.41457500	3.85405000
250.98	2.50356500	3.87775200
252.00	2.59543400	3.89439400
253.03	2.68613800	3.90383600
254.07	2.77885100	3.91105000
255.11	2.87217000	3.91478600
256.17	2.97112700	3.91722400
257.23	3.07556900	3.91276100
258.30	3.18679900	3.89850400
259.38	3.30004100	3.87134500
260.47	3.41484400	3.83264500
261.57	3.52350600	3.78039200
262.68	3.63025900	3.71832400
263.80	3.73127700	3.64508800
264.93	3.82491800	3.56050500
266.06	3.90696300	3.46565700
267.21	3.97750000	3.36181000
268.37	4.03204600	3.25443700
269.53	4.07169600	3.14648500
270.71	4.09887700	3.04002600
271.90	4.11507600	2.93839000
273.10	4.12008500	2.84211000
274.30	4.11747400	2.75093200
275.52	4.10726200	2.66789500
276.75	4.09394400	2.59076200
277.99	4.07545800	2.52140400
279.25	4.05465600	2.45849000
280.51	4.03265700	2.40182600
281.78	4.00901200	2.35048100
283.07	3.98510900	2.30384200
284.37	3.96172200	2.26177200
285.68	3.93806500	2.22428300
287.00	3.91623000	2.19038500
288.34	3.89401300	2.15906300
289.69	3.87271900	2.13171300
291.05	3.85262800	2.10644300
292.42	3.83341400	2.08355100
293.80	3.81478900	2.06356700
295.20	3.79776900	2.04598800
296.62	3.78255900	2.02917500
298.04	3.76841400	2.01489500
299.48	3.75463500	2.00183900
300.93	3.74232100	1.98954700
302.40	3.73017700	1.97955800
303.89	3.72020200	1.97030600
305.38	3.71064700	1.96276000
306.89	3.70249000	1.95581000
308.42	3.69542400	1.94965800
309.96	3.68832900	1.94476500
311.52	3.68261900	1.94078500
313.09	3.67821900	1.93748900
314.68	3.67453300	1.93510900
316.29	3.67289600	1.93358200
317.91	3.67065800	1.93298800
319.55	3.67027400	1.93319300
321.21	3.67042300	1.93436000
322.88	3.67261500	1.93619600
324.57	3.67593500	1.93836900
326.28	3.68007300	1.94198600
328.00	3.68586600	1.94562600
329.75	3.69326700	1.95030500
331.51	3.70175100	1.95599300
333.29	3.71207600	1.96200100
335.10	3.72435400	1.96937500
336.92	3.73845700	1.97752600
338.76	3.75478400	1.98632400
340.62	3.77323300	1.99612300
342.50	3.79510000	2.00679700
344.40	3.82150700	2.01745900
346.33	3.85177400	2.02852000
348.27	3.88812300	2.03864100
350.24	3.93077800	2.04700700
352.23	3.97962700	2.05145000
354.24	4.03394400	2.04885000
356.28	4.09083900	2.03780400
358.34	4.14768100	2.01713600
360.42	4.20132400	1.98962000
362.53	4.25076300	1.95675600
364.66	4.29397700	1.92157000
366.82	4.33561800	1.88679100
369.00	4.37605000	1.85366400
371.21	4.41962200	1.82064800
373.45	4.46822300	1.78719600
375.71	4.52522300	1.74848000
378.00	4.58702300	1.69661000
380.32	4.64825800	1.62876500
382.67	4.70051600	1.54189700
385.05	4.73690800	1.44301700
387.45	4.75350900	1.33959200
389.89	4.75225400	1.23923400
392.36	4.73689200	1.14768200
394.86	4.71440700	1.06311800
397.39	4.68553400	0.99099000
399.95	4.65390300	0.92663300
402.55	4.62052700	0.86760600
405.18	4.58715700	0.81340000
407.85	4.55237600	0.76561600
410.55	4.51718500	0.72322100
413.28	4.48295300	0.68389400
416.06	4.44933100	0.65090600
418.87	4.41717000	0.61962100
421.72	4.38710000	0.58795800
424.61	4.35698700	0.56041700
427.54	4.32779700	0.53419600
430.50	4.29958100	0.50922200
433.51	4.27192400	0.48791600
436.57	4.24484700	0.46744400
439.66	4.21969500	0.44792800
442.80	4.19465000	0.42868000
445.99	4.17064900	0.41248600
449.22	4.14691300	0.39622900
452.50	4.12474800	0.37981100
455.83	4.10186000	0.36793100
459.20	4.08049700	0.35547900
462.63	4.06019800	0.34256800
466.11	4.03913600	0.33197900
469.64	4.02105500	0.31908100
473.23	4.00053500	0.30928000
476.87	3.98516200	0.29265500
480.56	3.96665400	0.28321200
484.32	3.95066000	0.27149900
488.13	3.93428600	0.26140800
492.00	3.91789300	0.25329700
495.94	3.90325100	0.24526300
499.94	3.88840000	0.23777000
504.00	3.87535400	0.23109100
508.14	3.86285900	0.22305800
512.34	3.85106800	0.21454200
516.60	3.83758900	0.20476600
520.95	3.82373000	0.19625000
525.36	3.80894800	0.18681200
529.85	3.79308500	0.17842400
534.42	3.77698000	0.17040200
539.07	3.76066900	0.16400400
543.79	3.74633000	0.15810000
548.61	3.73207000	0.15152300
553.51	3.71894200	0.14554300
558.49	3.70614200	0.13918800
563.57	3.69559500	0.13314300
568.74	3.68571500	0.12490000
574.01	3.67599600	0.11614300
579.37	3.66640600	0.10756200
584.84	3.66042000	0.10043500
590.41	3.66429400	0.08786000
596.08	3.66373200	0.05262300
601.87	3.63574300	0.02007000
607.77	3.60663700	0.00406300
613.79	3.57807800	0.00095500
619.93	3.55793300	0.00171900
626.19	3.53791000	0.00119200
632.58	3.52204300	0.00320600
639.10	3.50775700	0.00222700
645.76	3.49301800	0.00094400
652.55	3.47694500	0.00003200
659.50	3.46210100	0.00242200
666.59	3.45127600	0.00354600
673.83	3.43948600	0.00238100
681.24	3.42779500	0.00127800
688.81	3.41693400	0.00011700
696.55	3.40706100	0.00000000
704.46	3.39672200	0.00000000
712.56	3.38526700	0.00000000
720.84	3.37549700	0.00000000
729.32	3.36810400	0.00000000
738.01	3.36055500	0.00000000
746.90	3.35203900	0.00000000
756.01	3.34338500	0.00000000
765.34	3.33636400	0.00000000
774.91	3.32851900	0.00000000
784.72	3.32004700	0.00000000
794.78	3.31197800	0.00000000
805.10	3.30334600	0.00000000
815.69	3.29302000	0.00000000
826.57	3.28329100	0.00000000
