; From SOPRA S.A. http://www.sopra-sa.com/indices.htm
; Filename    Symbol               Range (nm)     Description
; ALGAAS0     GaAs                206     2479    Aluminum Gallium Arsenide (0% Al)
; lambda/nm       n         k
206.64	1.26400000	2.47200000
208.38	1.27282800	2.52092200
210.14	1.28800000	2.55700000
211.94	1.30012500	2.59100000
213.77	1.31100000	2.62500000
215.63	1.31793800	2.66518800
217.52	1.32500000	2.71000000
219.44	1.33575000	2.76025000
221.40	1.34900000	2.81500000
223.40	1.36456200	2.87312500
225.43	1.38300000	2.93600000
227.50	1.40431300	3.00406300
229.60	1.43000000	3.07900000
231.75	1.46118800	3.16162500
233.93	1.49900000	3.25500000
236.16	1.54062500	3.36106300
238.43	1.59900000	3.48400000
240.75	1.67731200	3.63574900
243.11	1.80200000	3.79500000
245.52	2.01162400	3.96124900
247.97	2.27300000	4.08400000
250.48	2.58268900	4.10087500
253.03	2.89000000	4.04700000
255.64	3.13856400	3.92606200
258.30	3.34200000	3.77000000
261.02	3.48756300	3.61137500
263.80	3.59800000	3.45200000
266.63	3.69050000	3.30625100
269.53	3.76900000	3.16900000
272.49	3.84531200	3.04856300
275.52	3.91300000	2.91900000
278.62	3.97775000	2.74431200
281.78	4.01500000	2.56300000
285.02	3.99143700	2.40118700
288.34	3.93900000	2.26000000
291.73	3.87712500	2.15181300
295.20	3.81000000	2.06900000
298.76	3.74862500	2.01012500
302.40	3.69200000	1.96900000
306.14	3.64306300	1.93925000
309.96	3.60100000	1.92000000
313.89	3.56612500	1.90862500
317.91	3.53800000	1.90400000
322.04	3.51656200	1.90412500
326.28	3.50100000	1.90900000
330.63	3.49006200	1.91818700
335.10	3.48500000	1.93100000
339.69	3.48675000	1.94637500
344.40	3.49500000	1.96500000
349.25	3.50956200	1.98718800
354.24	3.53100000	2.01300000
359.38	3.55868800	2.04212500
364.66	3.59600000	2.07600000
370.11	3.64225000	2.11506200
375.71	3.70900000	2.16200000
381.49	3.80337500	2.23925000
387.45	3.93800000	2.28800000
393.60	4.16131200	2.23725000
399.95	4.37300000	2.14600000
406.51	4.43425000	2.05231300
413.28	4.50900000	1.94800000
420.29	4.79481300	1.86775000
427.54	5.05200000	1.72100000
435.04	5.05600000	1.36024900
442.80	4.95900000	0.99100000
450.86	4.83331200	0.80768800
459.20	4.69400000	0.69600000
467.87	4.58637500	0.60518800
476.87	4.49200000	0.53900000
486.22	4.40787600	0.48456300
495.94	4.33300000	0.44100000
506.06	4.26562500	0.40306300
516.60	4.20500000	0.37100000
527.60	4.14993700	0.34387500
539.07	4.10000000	0.32000000
551.05	4.05450000	0.29706300
563.57	4.01300000	0.27600000
576.68	3.97493700	0.25706300
590.41	3.94000000	0.24000000
604.81	3.90768700	0.22525000
619.93	3.87800000	0.21100000
635.82	3.85068800	0.19493800
652.55	3.82600000	0.17900000
670.19	3.80493800	0.16543800
688.81	3.78500000	0.15100000
708.49	3.76356200	0.13106300
729.32	3.74200000	0.11200000
751.43	3.72043800	0.09975000
774.91	3.70000000	0.09100000
799.90	3.68362500	0.08908200
826.57	3.66600000	0.08000000
855.07	3.64257500	0.04026300
885.61	3.61400000	0.00169000
918.41	3.57607500	0.00404900
953.73	3.53880000	0.00000000
991.88	3.51303700	0.00010600
1033.21	3.49200000	0.00000000
1078.13	3.47233800	0.00000000
1127.14	3.45460000	0.00000000
1180.81	3.43823100	0.00000000
1239.85	3.42320000	0.00000000
1305.11	3.40931200	0.00000000
1377.61	3.39650000	0.00000000
1458.65	3.38464400	0.00000000
1549.81	3.37370000	0.00000000
1653.14	3.36360600	0.00000000
1771.22	3.35430000	0.00000000
1907.46	3.34569500	0.00000000
2066.42	3.33780000	0.00000000
2254.28	3.33060000	0.00000000
2479.70	3.32400000	0.00000000
