; From SOPRA S.A. http://www.sopra-sa.com/indices.htm
; Filename    Symbol               Range (nm)     Description
; ALON        AlON                399     2479    Aluminum Oxynitride
; lambda/nm       n         k
399.95	1.81245300	0.00000000
406.51	1.81134500	0.00000000
413.28	1.81009700	0.00000000
420.29	1.80873600	0.00000000
427.54	1.80728600	0.00000000
435.04	1.80577400	0.00000000
442.80	1.80422500	0.00000000
450.86	1.80266500	0.00000000
459.20	1.80112000	0.00000000
467.87	1.79961500	0.00000000
476.87	1.79817600	0.00000000
486.22	1.79682900	0.00000000
495.94	1.79559900	0.00000000
506.06	1.79451200	0.00000000
516.60	1.79359400	0.00000000
527.60	1.79284600	0.00000000
539.07	1.79236600	0.00000000
551.05	1.79232500	0.00000000
563.57	1.79249800	0.00000000
576.68	1.79282200	0.00000000
590.41	1.79297300	0.00000000
604.81	1.79250900	0.00000000
619.93	1.79171900	0.00000000
635.82	1.79074100	0.00000000
652.55	1.78958200	0.00000000
670.19	1.78828000	0.00000000
688.81	1.78687600	0.00000000
708.49	1.78540800	0.00000000
729.32	1.78391700	0.00000000
751.43	1.78244200	0.00000000
774.91	1.78102200	0.00000000
799.90	1.77943100	0.00000000
826.57	1.77850500	0.00000000
855.07	1.77955600	0.00000000
885.61	1.78093100	0.00000000
918.41	1.78141200	0.00000000
953.73	1.78099900	0.00000000
991.88	1.77884900	0.00000000
1033.21	1.77628100	0.00000000
1078.13	1.77451600	0.00000000
1127.14	1.77301100	0.00000000
1180.81	1.77168000	0.00000000
1239.85	1.77037300	0.00000000
1305.11	1.76886500	0.00000000
1377.61	1.76729400	0.00000000
1458.65	1.76582600	0.00000000
1549.81	1.76415400	0.00000000
1653.14	1.76198100	0.00000000
1771.22	1.75944400	0.00000000
1907.46	1.75672300	0.00000000
2066.42	1.75339500	0.00000000
2254.28	1.74918900	0.00000000
2479.70	1.74383400	0.00000000
