; Refractive index spectrum for Au by Lemarchand-5.77nm
;
; F. Lemarchand, <i>private communications</i> (2013). Index determination is performed using method explained in:<br>L. Gao, F. Lemarchand, and M. Lequime. Comparison of different dispersion models for single layer optical thin film index determination, <a href="http://dx.doi.org/10.1016/j.tsf.2011.07.028"><i>Thin Solid Films</i> <b>520</b>, 501â€“509 (2011)</a>
;
; 5.77-nm monolayer deposited using the magnetron sputtering technique; thicknesses determined by X-ray diffraction.
;
; lambda/nm    n     k
350.00 	2.01869685 	1.77650576 
355.00 	1.99056553 	1.79493505 
360.00 	1.96497474 	1.81463553 
365.00 	1.94200362 	1.83517271 
370.00 	1.92166936 	1.85608560 
375.00 	1.90391856 	1.87689635 
380.00 	1.88862003 	1.89712228 
385.00 	1.87555964 	1.91628999 
390.00 	1.86443794 	1.93395148 
395.00 	1.85487098 	1.94970159 
400.00 	1.84639507 	1.96319644 
405.00 	1.83847593 	1.97417159 
410.00 	1.83052264 	1.98245914 
415.00 	1.82190615 	1.98800195 
420.00 	1.81198190 	1.99086384 
425.00 	1.80011540 	1.99123427 
430.00 	1.78570899 	1.98942671 
435.00 	1.76822814 	1.98587033 
440.00 	1.74722504 	1.98109544 
445.00 	1.72235822 	1.97571388 
450.00 	1.69340667 	1.97039560 
455.00 	1.66027847 	1.96584338 
460.00 	1.62301369 	1.96276700 
465.00 	1.58178240 	1.96185817 
470.00 	1.53687828 	1.96376672 
475.00 	1.48870851 	1.96907853 
480.00 	1.43778003 	1.97829523 
485.00 	1.38468210 	1.99181596 
490.00 	1.33006484 	2.00992213 
495.00 	1.27461363 	2.03276632 
500.00 	1.21902032 	2.06036721 
505.00 	1.16395268 	2.09261226 
510.00 	1.11002513 	2.12926886 
515.00 	1.05777367 	2.17000365 
520.00 	1.00763814 	2.21440802 
525.00 	0.95995331 	2.26202645 
530.00 	0.91494884 	2.31238451 
535.00 	0.87275691 	2.36501329 
540.00 	0.83342505 	2.41946853 
545.00 	0.79693167 	2.47534370 
550.00 	0.76320219 	2.53227743 
555.00 	0.73212390 	2.58995623 
560.00 	0.70355902 	2.64811380 
565.00 	0.67735515 	2.70652801 
570.00 	0.65335345 	2.76501656 
575.00 	0.63139470 	2.82343216 
580.00 	0.61132349 	2.88165761 
585.00 	0.59299106 	2.93960114 
590.00 	0.57625702 	2.99719222 
595.00 	0.56099027 	3.05437783 
600.00 	0.54706932 	3.11111932 
605.00 	0.53438231 	3.16738966 
610.00 	0.52282663 	3.22317117 
615.00 	0.51230849 	3.27845369 
620.00 	0.50274235 	3.33323300 
625.00 	0.49405034 	3.38750956 
630.00 	0.48616158 	3.44128746 
635.00 	0.47901167 	3.49457362 
640.00 	0.47254204 	3.54737705 
645.00 	0.46669945 	3.59970837 
650.00 	0.46143548 	3.65157934 
655.00 	0.45670609 	3.70300250 
660.00 	0.45247116 	3.75399088 
665.00 	0.44869415 	3.80455783 
670.00 	0.44534173 	3.85471679 
675.00 	0.44238348 	3.90448119 
680.00 	0.43979160 	3.95386429 
685.00 	0.43754067 	4.00287918 
690.00 	0.43560741 	4.05153865 
695.00 	0.43397049 	4.09985517 
700.00 	0.43261034 	4.14784087 
705.00 	0.43150897 	4.19550749 
710.00 	0.43064985 	4.24286639 
715.00 	0.43001776 	4.28992853 
720.00 	0.42959867 	4.33670448 
725.00 	0.42937964 	4.38320439 
730.00 	0.42934873 	4.42943805 
735.00 	0.42949488 	4.47541485 
740.00 	0.42980788 	4.52114379 
745.00 	0.43027825 	4.56663355 
750.00 	0.43089721 	4.61189241 
755.00 	0.43165661 	4.65692834 
760.00 	0.43254887 	4.70174896 
765.00 	0.43356696 	4.74636159 
770.00 	0.43470431 	4.79077324 
775.00 	0.43595481 	4.83499063 
780.00 	0.43731278 	4.87902020 
785.00 	0.43877289 	4.92286812 
790.00 	0.44033017 	4.96654032 
795.00 	0.44197999 	5.01004247 
800.00 	0.44371799 	5.05338001 
805.00 	0.44554010 	5.09655816 
810.00 	0.44744252 	5.13958192 
815.00 	0.44942165 	5.18245610 
820.00 	0.45147415 	5.22518531 
825.00 	0.45359686 	5.26777398 
830.00 	0.45578681 	5.31022634 
835.00 	0.45804121 	5.35254649 
840.00 	0.46035744 	5.39473835 
845.00 	0.46273301 	5.43680567 
850.00 	0.46516560 	5.47875209 
855.00 	0.46765300 	5.52058108 
860.00 	0.47019314 	5.56229598 
865.00 	0.47278406 	5.60390003 
870.00 	0.47542389 	5.64539632 
875.00 	0.47811089 	5.68678783 
880.00 	0.48084340 	5.72807743 
885.00 	0.48361983 	5.76926790 
890.00 	0.48643871 	5.81036189 
895.00 	0.48929863 	5.85136197 
900.00 	0.49219823 	5.89227062 
905.00 	0.49513626 	5.93309022 
910.00 	0.49811150 	5.97382308 
915.00 	0.50112281 	6.01447142 
920.00 	0.50416910 	6.05503737 
925.00 	0.50724933 	6.09552302 
930.00 	0.51036252 	6.13593035 
935.00 	0.51350773 	6.17626129 
940.00 	0.51668406 	6.21651771 
945.00 	0.51989067 	6.25670142 
950.00 	0.52312673 	6.29681414 
955.00 	0.52639148 	6.33685756 
960.00 	0.52968418 	6.37683331 
965.00 	0.53300411 	6.41674297 
970.00 	0.53635061 	6.45658805 
975.00 	0.53972304 	6.49637004 
980.00 	0.54312077 	6.53609035 
985.00 	0.54654322 	6.57575038 
990.00 	0.54998983 	6.61535145 
995.00 	0.55346005 	6.65489487 
1000.00 	0.55695337 	6.69438189 
1005.00 	0.56046929 	6.73381373 
1010.00 	0.56400735 	6.77319158 
1015.00 	0.56756708 	6.81251657 
1020.00 	0.57114806 	6.85178982 
1025.00 	0.57474985 	6.89101240 
1030.00 	0.57837207 	6.93018535 
1035.00 	0.58201433 	6.96930971 
1040.00 	0.58567625 	7.00838644 
1045.00 	0.58935749 	7.04741651 
1050.00 	0.59305770 	7.08640083 
1055.00 	0.59677654 	7.12534033 
1060.00 	0.60051371 	7.16423587 
1065.00 	0.60426891 	7.20308830 
1070.00 	0.60804183 	7.24189845 
1075.00 	0.61183219 	7.28066713 
1080.00 	0.61563974 	7.31939512 
1085.00 	0.61946419 	7.35808318 
1090.00 	0.62330531 	7.39673205 
1095.00 	0.62716285 	7.43534245 
1100.00 	0.63103656 	7.47391509 
1105.00 	0.63492624 	7.51245064 
1110.00 	0.63883166 	7.55094976 
1115.00 	0.64275260 	7.58941311 
1120.00 	0.64668887 	7.62784132 
1125.00 	0.65064026 	7.66623499 
1130.00 	0.65460660 	7.70459473 
1135.00 	0.65858768 	7.74292111 
1140.00 	0.66258335 	7.78121471 
1145.00 	0.66659341 	7.81947608 
1150.00 	0.67061772 	7.85770576 
1155.00 	0.67465610 	7.89590426 
1160.00 	0.67870840 	7.93407211 
1165.00 	0.68277448 	7.97220980 
1170.00 	0.68685418 	8.01031783 
1175.00 	0.69094736 	8.04839666 
1180.00 	0.69505388 	8.08644676 
1185.00 	0.69917362 	8.12446858 
1190.00 	0.70330644 	8.16246257 
1195.00 	0.70745221 	8.20042915 
1200.00 	0.71161082 	8.23836876 
1205.00 	0.71578215 	8.27628179 
1210.00 	0.71996609 	8.31416865 
1215.00 	0.72416251 	8.35202974 
1220.00 	0.72837132 	8.38986543 
1225.00 	0.73259241 	8.42767610 
1230.00 	0.73682567 	8.46546212 
1235.00 	0.74107101 	8.50322385 
1240.00 	0.74532833 	8.54096163 
1245.00 	0.74959753 	8.57867580 
1250.00 	0.75387854 	8.61636670 
1255.00 	0.75817124 	8.65403466 
1260.00 	0.76247557 	8.69168000 
1265.00 	0.76679143 	8.72930302 
1270.00 	0.77111874 	8.76690404 
1275.00 	0.77545743 	8.80448335 
1280.00 	0.77980741 	8.84204124 
1285.00 	0.78416860 	8.87957801 
1290.00 	0.78854095 	8.91709392 
1295.00 	0.79292436 	8.95458927 
1300.00 	0.79731877 	8.99206431 
1305.00 	0.80172412 	9.02951930 
1310.00 	0.80614033 	9.06695451 
1315.00 	0.81056733 	9.10437019 
1320.00 	0.81500508 	9.14176658 
1325.00 	0.81945349 	9.17914393 
1330.00 	0.82391251 	9.21650247 
1335.00 	0.82838209 	9.25384243 
1340.00 	0.83286216 	9.29116404 
1345.00 	0.83735266 	9.32846753 
1350.00 	0.84185354 	9.36575311 
1355.00 	0.84636474 	9.40302100 
1360.00 	0.85088622 	9.44027140 
1365.00 	0.85541791 	9.47750452 
1370.00 	0.85995977 	9.51472057 
1375.00 	0.86451174 	9.55191974 
1380.00 	0.86907379 	9.58910223 
1385.00 	0.87364585 	9.62626822 
1390.00 	0.87822788 	9.66341790 
1395.00 	0.88281984 	9.70055145 
1400.00 	0.88742168 	9.73766906 
1405.00 	0.89203335 	9.77477090 
1410.00 	0.89665481 	9.81185714 
1415.00 	0.90128602 	9.84892796 
1420.00 	0.90592694 	9.88598351 
1425.00 	0.91057753 	9.92302396 
1430.00 	0.91523774 	9.96004948 
1435.00 	0.91990753 	9.99706022 
1440.00 	0.92458687 	10.03405633 
1445.00 	0.92927572 	10.07103796 
1450.00 	0.93397403 	10.10800527 
1455.00 	0.93868179 	10.14495840 
1460.00 	0.94339893 	10.18189750 
1465.00 	0.94812544 	10.21882270 
1470.00 	0.95286127 	10.25573415 
1475.00 	0.95760640 	10.29263197 
1480.00 	0.96236078 	10.32951631 
1485.00 	0.96712439 	10.36638729 
1490.00 	0.97189718 	10.40324505 
1495.00 	0.97667914 	10.44008971 
1500.00 	0.98221675 	10.47672483 
1505.00 	0.98843434 	10.51316884 
1510.00 	0.99467151 	10.54959522 
1515.00 	1.00092825 	10.58600409 
1520.00 	1.00720452 	10.62239553 
1525.00 	1.01350030 	10.65876963 
1530.00 	1.01981556 	10.69512648 
1535.00 	1.02615028 	10.73146618 
1540.00 	1.03250442 	10.76778880 
1545.00 	1.03887798 	10.80409444 
1550.00 	1.04527091 	10.84038318 
1555.00 	1.05168320 	10.87665509 
1560.00 	1.05811482 	10.91291027 
1565.00 	1.06456575 	10.94914878 
1570.00 	1.07103595 	10.98537071 
1575.00 	1.07752542 	11.02157613 
1580.00 	1.08403412 	11.05776511 
1585.00 	1.09056203 	11.09393772 
1590.00 	1.09710913 	11.13009404 
1595.00 	1.10367539 	11.16623414 
1600.00 	1.11026080 	11.20235808 
1605.00 	1.11686532 	11.23846593 
1610.00 	1.12348894 	11.27455775 
1615.00 	1.13013163 	11.31063362 
1620.00 	1.13679337 	11.34669358 
1625.00 	1.14347414 	11.38273771 
1630.00 	1.15017391 	11.41876606 
1635.00 	1.15689267 	11.45477869 
1640.00 	1.16363039 	11.49077566 
1645.00 	1.17038705 	11.52675702 
1650.00 	1.17716263 	11.56272284 
1655.00 	1.18395710 	11.59867316 
1660.00 	1.19077045 	11.63460804 
1665.00 	1.19760266 	11.67052753 
1670.00 	1.20445370 	11.70643168 
1675.00 	1.21132354 	11.74232054 
1680.00 	1.21821218 	11.77819416 
1685.00 	1.22511959 	11.81405259 
1690.00 	1.23204575 	11.84989588 
1695.00 	1.23899063 	11.88572406 
1700.00 	1.24595423 	11.92153720 
1705.00 	1.25293651 	11.95733532 
1710.00 	1.25993745 	11.99311848 
1715.00 	1.26695704 	12.02888671 
1720.00 	1.27399526 	12.06464006 
1725.00 	1.28105208 	12.10037857 
1730.00 	1.28812748 	12.13610227 
1735.00 	1.29522145 	12.17181121 
1740.00 	1.30233396 	12.20750543 
1745.00 	1.30946500 	12.24318496 
1750.00 	1.31661454 	12.27884984 
1755.00 	1.32378257 	12.31450011 
1760.00 	1.33096906 	12.35013579 
1765.00 	1.33817399 	12.38575693 
1770.00 	1.34539735 	12.42136356 
1775.00 	1.35263911 	12.45695571 
1780.00 	1.35989926 	12.49253341 
1785.00 	1.36717777 	12.52809670 
1790.00 	1.37447463 	12.56364560 
1795.00 	1.38178981 	12.59918015 
1800.00 	1.38912330 	12.63470038 
