;  Optical constants for cubic ZnS
; 
;   taken from:
;
;   'Handbook of Optical Constants of Solids II', Ed. by Edward D. Palik,
;   Academic Press, Inc., 1991.
;   
;    Lambda (nm)            n            k
;-----------------------------------------
104.98	0.83400000	0.90300000
110.01	0.81900000	1.02000000
115.01	0.85500000	1.14000000
120.02	0.92900000	1.27000000
124.99	1.02000000	1.36000000
130.00	1.13000000	1.42000000
135.00	1.23000000	1.44000000
140.00	1.33000000	1.44000000
144.99	1.38000000	1.45000000
149.99	1.41000000	1.47000000
154.99	1.48000000	1.53000000
160.00	1.55000000	1.58000000
165.00	1.65000000	1.64000000
170.00	1.76000000	1.70000000
174.99	1.88000000	1.72000000
179.99	2.01000000	1.72000000
184.99	2.11000000	1.68000000
189.98	2.19000000	1.64000000
195.00	2.26000000	1.62000000
200.00	2.32000000	1.62000000
450.84	2.46870000	0.00000000
459.19	2.45930000	0.00000000
467.85	2.45020000	0.00000000
476.85	2.44140000	0.00000000
486.20	2.43300000	0.00000000
495.92	2.42480000	0.00000000
506.04	2.41700000	0.00000000
516.58	2.40940000	0.00000000
527.58	2.40210000	0.00000000
539.04	2.39500000	0.00000000
551.02	2.38820000	0.00000000
563.54	2.38160000	0.00000000
576.65	2.37530000	0.00000000
590.38	2.36920000	0.00000000
604.78	2.36330000	0.00000000
619.90	2.35760000	0.00000000
635.79	2.35200000	0.00000000
652.53	2.34670000	0.00000000
670.16	2.34160000	0.00000000
688.78	2.33670000	0.00000000
708.46	2.33190000	0.00000000
729.29	2.32740000	0.00000000
751.39	2.32290000	0.00000000
774.88	2.31870000	0.00000000
799.87	2.31460000	0.00000350
826.53	2.31070000	0.00000000
855.03	2.30690000	0.00000000
885.57	2.30330000	0.00000000
918.37	2.29980000	0.00000000
953.69	2.29650000	0.00000000
991.84	2.29330000	0.00000000
1033.17	2.29030000	0.00000000
1078.09	2.28740000	0.00000000
1127.09	2.28460000	0.00000000
1180.76	2.28200000	0.00000000
1239.80	2.27950000	0.00000000
1305.05	2.27710000	0.00000000
1377.56	2.27480000	0.00000000
1458.59	2.27270000	0.00000000
1549.75	2.27060000	0.00000000
1653.07	2.26870000	0.00000000
1771.14	2.26690000	0.00000000
1907.38	2.26510000	0.00000000
2066.33	2.26340000	0.00000000
2254.18	2.26180000	0.00000000
2479.60	2.26030000	0.00000000
