; Refractive index spectrum for C by Djurisic-o
;
; A. B. Djurišić and; E. H. Li. Optical properties of graphite, <a href="http://dx.doi.org/ 10.1063/1.369370"><i>J. Appl. Phys.</i> <b>85</b>, 7404-7410 (1999)</a>
;
; Graphite. Ordinary ray (o). Critical analysis and fit of the experimental data from several sources to a modified Lorentz-Drude (LD) model.<br>[<a href="http://refractiveindex.info/download/data/1999/Djurisic 1999 - Graphite - o.sce">Calculation script (Scilab)</a>]
;
; lambda/nm    n     k
100.29 	2.26392500 	0.71596100 
100.61 	2.25343400 	0.70642700 
100.94 	2.24313700 	0.69721800 
101.27 	2.23302600 	0.68831500 
101.60 	2.22309900 	0.67969900 
101.93 	2.21334800 	0.67135400 
102.26 	2.20376800 	0.66326400 
102.60 	2.19435300 	0.65541500 
102.94 	2.18509700 	0.64779100 
103.28 	2.17599500 	0.64038100 
103.63 	2.16704100 	0.63317200 
103.98 	2.15822800 	0.62615200 
104.32 	2.14955000 	0.61931200 
104.68 	2.14100200 	0.61264000 
105.03 	2.13257800 	0.60612800 
105.38 	2.12427200 	0.59976700 
105.74 	2.11607800 	0.59354900 
106.10 	2.10799100 	0.58746600 
106.47 	2.10000400 	0.58151100 
106.83 	2.09211300 	0.57567700 
107.20 	2.08431300 	0.56995900 
107.57 	2.07659600 	0.56435000 
107.95 	2.06896000 	0.55884600 
108.32 	2.06139700 	0.55344100 
108.70 	2.05390500 	0.54813000 
109.08 	2.04647600 	0.54291000 
109.47 	2.03910800 	0.53777700 
109.85 	2.03179400 	0.53272600 
110.24 	2.02453100 	0.52775400 
110.64 	2.01731400 	0.52285900 
111.03 	2.01013900 	0.51803700 
111.43 	2.00300100 	0.51328600 
111.83 	1.99589600 	0.50860300 
112.23 	1.98882000 	0.50398600 
112.64 	1.98177000 	0.49943300 
113.05 	1.97474000 	0.49494100 
113.46 	1.96772800 	0.49051000 
113.88 	1.96072900 	0.48613800 
114.30 	1.95374100 	0.48182300 
114.72 	1.94675800 	0.47756400 
115.14 	1.93977900 	0.47336000 
115.57 	1.93279900 	0.46921000 
116.00 	1.92581400 	0.46511300 
116.44 	1.91882300 	0.46106800 
116.87 	1.91182100 	0.45707400 
117.31 	1.90480500 	0.45313200 
117.76 	1.89777200 	0.44924000 
118.21 	1.89072000 	0.44539800 
118.66 	1.88364400 	0.44160700 
119.11 	1.87654200 	0.43786500 
119.57 	1.86941100 	0.43417200 
120.03 	1.86224700 	0.43052900 
120.50 	1.85504900 	0.42693600 
120.97 	1.84781300 	0.42339300 
121.44 	1.84053600 	0.41989900 
121.92 	1.83321600 	0.41645600 
122.40 	1.82584900 	0.41306300 
122.88 	1.81843200 	0.40972200 
123.37 	1.81096400 	0.40643100 
123.86 	1.80344000 	0.40319300 
124.35 	1.79585800 	0.40000800 
124.85 	1.78821600 	0.39687600 
125.36 	1.78051000 	0.39379900 
125.86 	1.77273800 	0.39077600 
126.38 	1.76489600 	0.38781000 
126.89 	1.75698100 	0.38490100 
127.41 	1.74899200 	0.38205000 
127.94 	1.74092400 	0.37925800 
128.46 	1.73277500 	0.37652700 
129.00 	1.72454100 	0.37385800 
129.53 	1.71621900 	0.37125300 
130.08 	1.70780700 	0.36871300 
130.62 	1.69930100 	0.36624000 
131.17 	1.69069700 	0.36383600 
131.73 	1.68199300 	0.36150300 
132.29 	1.67318400 	0.35924200 
132.86 	1.66426800 	0.35705700 
133.43 	1.65524000 	0.35494900 
134.00 	1.64609800 	0.35292100 
134.58 	1.63683600 	0.35097700 
135.17 	1.62745100 	0.34911800 
135.76 	1.61794000 	0.34734800 
136.35 	1.60829800 	0.34567000 
136.95 	1.59852000 	0.34408900 
137.56 	1.58860400 	0.34260700 
138.17 	1.57854300 	0.34123000 
138.79 	1.56833300 	0.33996100 
139.41 	1.55797000 	0.33880500 
140.04 	1.54744900 	0.33776800 
140.67 	1.53676500 	0.33685400 
141.31 	1.52591300 	0.33607100 
141.95 	1.51488700 	0.33542400 
142.61 	1.50368100 	0.33491900 
143.26 	1.49229100 	0.33456600 
143.93 	1.48071100 	0.33437000 
144.60 	1.46893500 	0.33434100 
145.27 	1.45695700 	0.33448800 
145.95 	1.44477000 	0.33482100 
146.64 	1.43237000 	0.33535100 
147.34 	1.41974900 	0.33608800 
148.04 	1.40690100 	0.33704600 
148.75 	1.39382000 	0.33823800 
149.46 	1.38050000 	0.33967800 
150.18 	1.36693400 	0.34138200 
150.91 	1.35311800 	0.34336700 
151.65 	1.33904400 	0.34565000 
152.39 	1.32470700 	0.34825300 
153.14 	1.31010200 	0.35119500 
153.90 	1.29522400 	0.35450100 
154.67 	1.28007100 	0.35819500 
155.44 	1.26463700 	0.36230300 
156.22 	1.24892200 	0.36685500 
157.01 	1.23292500 	0.37188300 
157.81 	1.21664700 	0.37741900 
158.61 	1.20009000 	0.38349900 
159.43 	1.18326100 	0.39016300 
160.25 	1.16616700 	0.39745100 
161.08 	1.14882100 	0.40540700 
161.92 	1.13123700 	0.41407800 
162.76 	1.11343700 	0.42351000 
163.62 	1.09544700 	0.43375600 
164.49 	1.07729900 	0.44486600 
165.36 	1.05903200 	0.45689400 
166.25 	1.04069300 	0.46989000 
167.14 	1.02233900 	0.48390700 
168.04 	1.00403500 	0.49899100 
168.96 	0.98585400 	0.51518700 
169.88 	0.96788100 	0.53253000 
170.81 	0.95020700 	0.55104800 
171.76 	0.93293200 	0.57075900 
172.71 	0.91616200 	0.59166500 
173.68 	0.90000400 	0.61375500 
174.65 	0.88456800 	0.63700300 
175.64 	0.86995900 	0.66136600 
176.64 	0.85627600 	0.68678500 
177.64 	0.84360800 	0.71318800 
178.67 	0.83203100 	0.74049300 
179.70 	0.82160800 	0.76860700 
180.74 	0.81238500 	0.79743400 
181.80 	0.80439500 	0.82687600 
182.87 	0.79765200 	0.85683700 
183.95 	0.79216200 	0.88722300 
185.05 	0.78791600 	0.91794900 
186.15 	0.78489500 	0.94893700 
187.28 	0.78307600 	0.98011500 
188.41 	0.78242800 	1.01142300 
189.56 	0.78291700 	1.04280800 
190.72 	0.78450600 	1.07422500 
191.90 	0.78716000 	1.10564000 
193.09 	0.79084200 	1.13702300 
194.30 	0.79551600 	1.16835300 
195.52 	0.80115000 	1.19961400 
196.76 	0.80771400 	1.23079600 
198.01 	0.81517900 	1.26189400 
199.28 	0.82352200 	1.29290700 
200.57 	0.83272300 	1.32383900 
201.87 	0.84276500 	1.35469700 
203.19 	0.85363800 	1.38548800 
204.52 	0.86533300 	1.41622600 
205.88 	0.87784900 	1.44692400 
207.25 	0.89118900 	1.47759500 
208.64 	0.90536200 	1.50825700 
210.05 	0.92038100 	1.53892400 
211.48 	0.93626700 	1.56961100 
212.93 	0.95304600 	1.60033400 
214.40 	0.97075000 	1.63110300 
215.88 	0.98941700 	1.66193000 
217.39 	1.00909300 	1.69282100 
218.93 	1.02982700 	1.72377900 
220.48 	1.05167900 	1.75480200 
222.05 	1.07471200 	1.78588100 
223.65 	1.09899600 	1.81700200 
225.27 	1.12460800 	1.84814100 
226.91 	1.15162900 	1.87926700 
228.58 	1.18014800 	1.91033500 
230.28 	1.21025500 	1.94129200 
231.99 	1.24204700 	1.97206800 
233.74 	1.27562200 	2.00258000 
235.51 	1.31108200 	2.03272600 
237.31 	1.34852500 	2.06238700 
239.13 	1.38805100 	2.09142300 
240.99 	1.42975200 	2.11967000 
242.87 	1.47371300 	2.14694000 
244.78 	1.52000700 	2.17302100 
246.72 	1.56868900 	2.19767200 
248.70 	1.61979300 	2.22062400 
250.70 	1.67332400 	2.24158300 
252.74 	1.72924900 	2.26022700 
254.81 	1.78749300 	2.27621300 
256.92 	1.84792800 	2.28918100 
259.06 	1.91036800 	2.29875900 
261.24 	1.97455700 	2.30457800 
263.45 	2.04016900 	2.30628100 
265.70 	2.10679900 	2.30353800 
267.99 	2.17396800 	2.29606600 
270.32 	2.24112600 	2.28364800 
272.69 	2.30766300 	2.26614900 
275.11 	2.37292200 	2.24353400 
277.56 	2.43622500 	2.21588400 
280.06 	2.49689200 	2.18339900 
282.61 	2.55427300 	2.14640400 
285.20 	2.60777600 	2.10534100 
287.84 	2.65689200 	2.06075300 
290.53 	2.70121300 	2.01326400 
293.27 	2.74045400 	1.96355500 
296.06 	2.77445100 	1.91233200 
298.91 	2.80316900 	1.86030000 
301.81 	2.82668500 	1.80813900 
304.77 	2.84518100 	1.75647600 
307.79 	2.85892200 	1.70587900 
310.87 	2.86824000 	1.65683600 
314.01 	2.87351300 	1.60975900 
317.21 	2.87514700 	1.56497900 
320.48 	2.87355800 	1.52274900 
323.82 	2.86916400 	1.48325400 
327.23 	2.86236800 	1.44661300 
330.71 	2.85355700 	1.41289500 
334.26 	2.84309300 	1.38212100 
337.89 	2.83130800 	1.35427400 
341.61 	2.81851000 	1.32930900 
345.40 	2.80497400 	1.30715700 
349.28 	2.79095000 	1.28773100 
353.25 	2.77666100 	1.27093200 
357.31 	2.76230300 	1.25665100 
361.47 	2.74805200 	1.24477500 
365.72 	2.73406300 	1.23518600 
370.07 	2.72047000 	1.22776700 
374.53 	2.70739300 	1.22239900 
379.10 	2.69493600 	1.21896500 
383.78 	2.68319000 	1.21735100 
388.57 	2.67223300 	1.21744400 
393.49 	2.66213400 	1.21913500 
398.54 	2.65295300 	1.22231900 
403.71 	2.64473800 	1.22689100 
409.02 	2.63753500 	1.23275300 
414.47 	2.63137800 	1.23980700 
420.08 	2.62629900 	1.24796000 
425.83 	2.62232000 	1.25712100 
431.74 	2.61946100 	1.26720200 
437.82 	2.61773600 	1.27811900 
444.08 	2.61715400 	1.28978900 
450.51 	2.61772000 	1.30213200 
457.14 	2.61943300 	1.31507200 
463.96 	2.62229000 	1.32853300 
470.99 	2.62628200 	1.34244400 
478.23 	2.63139600 	1.35673500 
485.70 	2.63761400 	1.37134100 
493.41 	2.64491700 	1.38619900 
501.37 	2.65327600 	1.40124700 
509.59 	2.66266300 	1.41643000 
518.08 	2.67304100 	1.43169700 
526.86 	2.68437200 	1.44699900 
535.94 	2.69661000 	1.46229400 
545.34 	2.70970900 	1.47754700 
555.08 	2.72361500 	1.49272600 
565.17 	2.73827100 	1.50780900 
575.63 	2.75361900 	1.52278400 
586.49 	2.76959500 	1.53764300 
597.77 	2.78613500 	1.55239200 
609.49 	2.80317500 	1.56704800 
621.67 	2.82064700 	1.58163600 
634.36 	2.83849000 	1.59619700 
647.57 	2.85664100 	1.61078200 
661.35 	2.87504600 	1.62545700 
675.72 	2.89365400 	1.64029900 
690.74 	2.91242300 	1.65539900 
706.43 	2.93132200 	1.67086100 
722.86 	2.95033100 	1.68680000 
740.06 	2.96944300 	1.70334100 
758.11 	2.98866500 	1.72062100 
777.06 	3.00801900 	1.73878500 
796.98 	3.02754800 	1.75798300 
817.95 	3.04730700 	1.77837500 
840.05 	3.06737300 	1.80012300 
863.38 	3.08783900 	1.82339600 
888.04 	3.10881800 	1.84836300 
914.15 	3.13044100 	1.87519800 
941.84 	3.15285700 	1.90407800 
971.27 	3.17623500 	1.93518400 
1002.59 	3.20076200 	1.96869900 
1036.00 	3.22664400 	2.00481500 
1071.71 	3.25410800 	2.04372900 
1109.98 	3.28340400 	2.08565000 
1151.07 	3.31480600 	2.13080300 
1195.33 	3.34861400 	2.17942800 
1243.12 	3.38516100 	2.23179200 
1294.90 	3.42481800 	2.28819000 
1351.18 	3.46799800 	2.34895500 
1412.57 	3.51517100 	2.41446800 
1479.81 	3.56687000 	2.48516900 
1553.76 	3.62371200 	2.56156900 
1635.50 	3.68641600 	2.64427200 
1726.32 	3.75582900 	2.73399500 
1827.81 	3.83296600 	2.83160200 
1941.99 	3.91905400 	2.93813600 
2071.37 	4.01560000 	3.05488000 
