; Refractive index spectrum for Cu by Hagemann
;
; 1) H.-J. Hagemann et al.. Optical constants from the far infrared to the x-ray region: Mg, Al, Cu, Ag, Au, Bi, C, and Al<sub>2</sub>O<sub>3</sub>, <a href="http://dx.doi.org/10.1364/JOSA.65.000742"><i>J. Opt. Soc. Am.</i> <b>65</b>, 742-744 (1975)</a><br>2) H.-J. Hagemann et al.. <a href="http://refractiveindex.info/download/data/1974/Hagemann 1974 - DESY report SR-74-7.pdf">DESY report SR-74/7 (1974)</a>
;
; lambda/nm    n     k
103.30 	1.09100000 	0.71300000 
112.70 	1.07400000 	0.75400000 
124.00 	1.03800000 	0.81800000 
130.50 	1.02900000 	0.86700000 
137.80 	1.02700000 	0.92100000 
145.90 	1.02900000 	0.97900000 
155.00 	1.02900000 	1.03000000 
165.30 	1.00500000 	1.09000000 
177.10 	0.97200000 	1.20000000 
190.70 	0.95800000 	1.37000000 
206.60 	1.03600000 	1.59000000 
213.80 	1.10200000 	1.67000000 
221.40 	1.18300000 	1.74000000 
229.60 	1.27600000 	1.78000000 
238.40 	1.37800000 	1.80000000 
248.00 	1.47000000 	1.78000000 
258.30 	1.53300000 	1.71000000 
269.50 	1.52000000 	1.67000000 
281.80 	1.48700000 	1.64000000 
295.20 	1.41900000 	1.64000000 
310.00 	1.34400000 	1.72000000 
326.30 	1.33600000 	1.81000000 
344.40 	1.31000000 	1.87000000 
364.70 	1.27000000 	1.95000000 
387.50 	1.23200000 	2.07000000 
413.30 	1.18400000 	2.21000000 
442.80 	1.16900000 	2.36000000 
476.90 	1.15200000 	2.50000000 
516.60 	1.12100000 	2.60000000 
539.10 	1.03700000 	2.59000000 
563.60 	0.82600000 	2.60000000 
590.40 	0.46800000 	2.81000000 
619.90 	0.27200000 	3.24000000 
652.50 	0.21400000 	3.67000000 
670.20 	0.21500000 	3.86000000 
688.80 	0.21300000 	4.05000000 
708.50 	0.21400000 	4.24000000 
729.30 	0.22300000 	4.43000000 
826.60 	0.26000000 	5.26000000 
1240.00 	0.43300000 	8.46000000 
2480.00 	1.69200000 	17.60000000 
