; From SOPRA S.A. http://www.sopra-sa.com/indices.htm
; Filename    Symbol               Range (nm)     Description
; FESI2EPI    FeSi2               247     6199    Iron Silicide
; lambda/nm       n         k
247.97	2.01900000	2.88800000
253.03	2.10300000	2.91200000
258.30	2.21700000	2.92400000
263.80	2.31700000	2.93400000
269.53	2.42600000	2.92800000
275.52	2.51300000	2.91100000
281.78	2.62700000	2.91800000
288.34	2.72900000	2.87400000
295.20	2.81100000	2.84100000
302.40	2.89500000	2.80200000
309.96	2.97300000	2.76700000
317.91	3.05200000	2.71800000
326.28	3.12000000	2.66500000
335.10	3.17600000	2.60000000
344.40	3.20700000	2.54900000
354.24	3.23500000	2.50600000
364.66	3.25800000	2.47500000
375.71	3.27700000	2.45000000
387.45	3.29500000	2.43900000
399.95	3.31900000	2.43900000
413.28	3.35200000	2.43600000
427.54	3.36900000	2.45000000
442.80	3.40100000	2.48100000
459.20	3.46800000	2.51900000
476.87	3.53600000	2.53900000
495.94	3.59100000	2.56300000
516.60	3.64600000	2.60600000
539.07	3.74400000	2.66900000
563.57	3.86300000	2.72600000
590.41	3.99800000	2.77500000
619.93	4.19100000	2.85400000
652.55	4.45100000	2.83400000
688.81	4.69100000	2.74000000
729.32	4.87400000	2.61800000
774.91	5.03300000	2.48600000
826.57	5.21700000	2.32400000
885.61	5.37800000	2.17800000
953.73	5.58300000	2.02100000
1033.21	5.79200000	1.82100000
1127.14	5.97900000	1.56900000
1239.85	6.27300000	1.21000000
1377.61	6.79200000	0.25800000
1549.81	6.42000000	0.01500000
1771.22	6.16400000	0.00000000
2066.42	5.98300000	0.00000000
2479.70	5.85000000	0.00000000
