; Refractive index spectrum for GaSb by Aspnes
;
; D. E. Aspnes and A. A. Studna. Dielectric functions and optical parameters of Si, Ge, GaP, GaAs, GaSb, InP, InAs, and InSb from 1.5 to 6.0 eV, <a href="http://dx.doi.org/10.1103/PhysRevB.27.985"><i>Phys. Rev. B</i> <b>27</b>, 985-1009 (1983)</a>
;
; Crysal orientation: <111>; Doping: 1.5Ã—10<sup>17</sup> cm<sup>-3</sup>, p; Room temperature
;
; lambda/nm    n     k
206.60 	0.93500000 	2.41600000 
210.10 	0.98500000 	2.44400000 
213.80 	1.02200000 	2.47900000 
217.50 	1.06200000 	2.53500000 
221.40 	1.12700000 	2.60200000 
225.40 	1.21200000 	2.64500000 
229.60 	1.29900000 	2.65300000 
233.90 	1.34500000 	2.63800000 
238.40 	1.35600000 	2.64500000 
243.10 	1.35800000 	2.68500000 
248.00 	1.36900000 	2.75100000 
253.00 	1.38700000 	2.82900000 
258.30 	1.40800000 	2.92800000 
263.80 	1.44400000 	3.05500000 
269.50 	1.50300000 	3.20800000 
275.50 	1.58600000 	3.39200000 
281.80 	1.72300000 	3.62800000 
288.30 	1.98900000 	3.92300000 
295.20 	2.52200000 	4.13000000 
302.40 	3.10000000 	3.97600000 
310.00 	3.45000000 	3.64300000 
317.90 	3.62000000 	3.32300000 
326.30 	3.70100000 	3.06900000 
335.10 	3.74800000 	2.86200000 
344.40 	3.77400000 	2.69000000 
354.20 	3.78500000 	2.54500000 
364.70 	3.79400000 	2.43000000 
375.70 	3.80800000 	2.31900000 
387.50 	3.80000000 	2.21000000 
399.90 	3.76600000 	2.13400000 
413.30 	3.73200000 	2.10900000 
427.50 	3.72800000 	2.12100000 
442.80 	3.76000000 	2.15700000 
459.20 	3.83600000 	2.21100000 
476.90 	3.98400000 	2.28000000 
495.90 	4.31200000 	2.28500000 
516.60 	4.51300000 	1.96200000 
539.10 	4.49200000 	1.78900000 
563.60 	4.52100000 	1.74700000 
590.40 	4.70500000 	1.80300000 
619.90 	5.23900000 	1.37800000 
652.50 	5.05200000 	0.82900000 
688.80 	4.81700000 	0.61100000 
729.30 	4.64300000 	0.48500000 
774.90 	4.50700000 	0.41600000 
826.60 	4.38800000 	0.34400000 
