;  Optical constants for hexagonal ZnS, extraordinary ray
; 
;   taken from:
;
;   'Handbook of Optical Constants of Solids', Ed. by Edward D. Palik,
;   Academic Press, Inc., 1985.
;   
;    Lambda (nm)            n            k
;-----------------------------------------
123.98	1.08000000	1.50000000
130.51	1.30000000	1.61000000
134.03	1.48000000	1.54000000
137.76	1.62000000	1.44000000
141.69	1.62000000	1.33000000
145.86	1.53000000	1.33000000
150.28	1.50000000	1.39000000
154.97	1.52000000	1.46000000
159.97	1.55000000	1.57000000
165.31	1.69000000	1.72000000
171.01	1.83000000	1.79000000
177.11	2.10000000	1.81000000
183.67	2.34000000	1.49000000
190.74	2.30000000	1.35000000
198.37	2.23000000	1.36000000
206.63	2.28000000	1.54000000
215.62	2.85000000	1.66000000
225.42	3.01000000	1.20000000
236.15	2.94000000	0.91000000
247.96	2.88000000	0.76000000
261.01	2.81000000	0.67000000
275.51	2.80000000	0.59000000
291.72	2.77000000	0.53000000
309.95	2.76000000	0.58000000
330.61	2.97000000	0.27000000
354.23	2.80000000	0.02500000
359.99	2.70900000	0.00000000
375.01	2.64000000	0.00000000
381.48	2.64000000	0.01000000
399.94	2.56400000	0.00000000
409.99	2.54400000	0.00000000
413.27	2.54000000	0.00000000
419.99	2.52500000	0.00000000
425.03	2.51400000	0.00000000
430.04	2.50500000	0.00000000
439.96	2.48800000	0.00000000
450.02	2.47700000	0.00000000
450.84	2.49000000	0.00000000
460.04	2.46300000	0.00000000
469.98	2.45300000	0.00000000
475.02	2.44900000	0.00000000
479.99	2.44300000	0.00000000
490.04	2.43300000	0.00000000
495.92	2.42000000	0.00000000
499.92	2.42500000	0.00000000
524.89	2.40700000	0.00000000
550.04	2.39200000	0.00000000
575.05	2.37800000	0.00000000
600.10	2.36800000	0.00000000
619.90	2.36000000	0.00000000
624.90	2.35800000	0.00000000
650.13	2.35000000	0.00000000
674.90	2.34300000	0.00000000
700.06	2.33700000	0.00000000
799.87	2.32800000	0.00000000
899.71	2.31500000	0.00000000
999.84	2.30300000	0.00000000
1200.19	2.29400000	0.00000000
1399.95	2.28800000	0.00000000
