;UO 
;UO Hg24Cd76.TeA:  Values of n and k for cubic mercury cadmium
;UO telluride (Hg0.24Cd0.76Te) from various references in HOCII
;UO (pg. 676).  Reference is 6.   
;UO 
;UO Copyright (c) 1995 the Optical Society of America.  Contains data
;UO from HANDBOOK OF OPTICAL CONSTANTS IN SOLIDS II edited by Edward D.
;UO Palik. Copyright (c) 1991 by Academic Press, Inc. Reproduced by
;UO permission of the publisher.
;UO ----------------------------------------------------------
;UO        nm        n        k
;UO ----------------------------------------------------------
;N  3
;L    Wavelength[nm]        n        k
225.40	1.39000000	2.06000000
227.10	1.40000000	2.09000000
228.70	1.44000000	2.12000000
230.40	1.49000000	2.15000000
232.20	1.54000000	2.18000000
233.90	1.58000000	2.20000000
235.70	1.63000000	2.21000000
237.50	1.68000000	2.23000000
239.30	1.76000000	2.26000000
241.20	1.82000000	2.25000000
243.10	1.90000000	2.25000000
245.00	1.97000000	2.26000000
247.00	2.06000000	2.22000000
249.00	2.14000000	2.18000000
251.00	2.20000000	2.14000000
253.00	2.24000000	2.10000000
255.10	2.27000000	2.05000000
257.20	2.30000000	2.00000000
259.40	2.31000000	1.95000000
261.60	2.33000000	1.91000000
263.80	2.34000000	1.87000000
266.10	2.34000000	1.84000000
268.40	2.35000000	1.81000000
270.70	2.36000000	1.78000000
273.10	2.36000000	1.76000000
275.50	2.36000000	1.75000000
278.00	2.36000000	1.72000000
280.50	2.37000000	1.71000000
283.10	2.37000000	1.70000000
285.70	2.37000000	1.69000000
288.30	2.37000000	1.68000000
291.00	2.38000000	1.67000000
293.80	2.38000000	1.66000000
296.60	2.38000000	1.66000000
299.50	2.38000000	1.66000000
302.40	2.39000000	1.66000000
305.40	2.40000000	1.66000000
308.40	2.40000000	1.66000000
311.50	2.41000000	1.66000000
314.70	2.42000000	1.66000000
317.90	2.43000000	1.67000000
321.20	2.45000000	1.67000000
324.60	2.46000000	1.68000000
328.00	2.48000000	1.68000000
331.50	2.50000000	1.69000000
335.10	2.52000000	1.71000000
338.70	2.55000000	1.72000000
342.50	2.57000000	1.72000000
346.30	2.61000000	1.73000000
350.20	2.66000000	1.74000000
354.20	2.71000000	1.75000000
358.30	2.75000000	1.73000000
362.50	2.80000000	1.71000000
366.80	2.84000000	1.68000000
371.20	2.87000000	1.65000000
375.70	2.90000000	1.61000000
380.30	2.93000000	1.59000000
385.00	2.95000000	1.56000000
389.90	2.98000000	1.54000000
394.80	3.00000000	1.53000000
399.90	3.02000000	1.52000000
405.20	3.04000000	1.51000000
410.50	3.07000000	1.50000000
416.00	3.10000000	1.50000000
421.70	3.14000000	1.49000000
427.50	3.18000000	1.47000000
433.50	3.25000000	1.43000000
439.60	3.33000000	1.36000000
446.00	3.37000000	1.27000000
452.50	3.39000000	1.20000000
459.20	3.42000000	1.12000000
466.10	3.43000000	1.05000000
473.20	3.43000000	0.97400000
480.50	3.42000000	0.91700000
488.10	3.41000000	0.87500000
495.90	3.40000000	0.82800000
504.00	3.39000000	0.78000000
512.30	3.37000000	0.73100000
520.90	3.36000000	0.69600000
529.80	3.35000000	0.66200000
539.00	3.33000000	0.62900000
548.60	3.32000000	0.59800000
558.50	3.31000000	0.57100000
568.70	3.30000000	0.54500000
579.30	3.29000000	0.52200000
590.40	3.27000000	0.49700000
601.80	3.26000000	0.46900000
613.80	3.24000000	0.44400000
626.20	3.23000000	0.42100000
639.10	3.22000000	0.40000000
652.50	3.21000000	0.37700000
666.60	3.20000000	0.36200000
681.20	3.19000000	0.35100000
696.50	3.18000000	0.34600000
712.50	3.17000000	0.34100000
729.30	3.16000000	0.33600000
