;UO 
;UO Hg80Cd20.TeA:  Values of n and k for cubic mercury cadmium
;UO telluride (Hg0.80Cd0.20Te) from various references in HOCII
;UO (pg. 670, 682).  References are 5, 25, 31.   
;UO 
;UO Copyright (c) 1995 the Optical Society of America.  Contains data
;UO from HANDBOOK OF OPTICAL CONSTANTS IN SOLIDS II edited by Edward D.
;UO Palik. Copyright (c) 1991 by Academic Press, Inc. Reproduced by
;UO permission of the publisher.
;UO ----------------------------------------------------------
;UO        nm        n        k
;UO ----------------------------------------------------------	
;N  3
;L    Wavelength[nm]        n        k
206.60	1.45000000	1.70200000
207.30	1.41300000	1.72200000
207.90	1.43800000	1.69100000
208.50	1.41800000	1.70700000
209.20	1.43700000	1.70600000
209.80	1.42900000	1.72100000
210.40	1.42000000	1.71300000
211.10	1.41300000	1.72800000
211.70	1.41900000	1.72400000
212.40	1.41400000	1.73500000
213.10	1.41300000	1.74000000
213.70	1.41100000	1.74200000
214.40	1.41300000	1.75700000
215.10	1.40900000	1.75900000
215.70	1.40900000	1.76800000
216.40	1.41000000	1.78100000
217.10	1.41100000	1.78600000
217.80	1.41300000	1.79700000
218.50	1.41300000	1.81200000
219.20	1.41300000	1.82200000
219.90	1.41900000	1.83400000
220.60	1.42100000	1.84300000
221.30	1.42900000	1.85600000
222.00	1.43200000	1.86700000
222.70	1.43800000	1.88100000
223.50	1.44400000	1.89200000
224.20	1.45000000	1.90500000
224.90	1.45700000	1.91600000
225.70	1.46500000	1.93000000
226.40	1.47300000	1.94200000
227.20	1.48300000	1.95300000
227.90	1.49100000	1.96600000
228.70	1.50400000	1.97800000
229.40	1.51500000	1.98900000
230.20	1.53000000	2.00200000
231.00	1.54100000	2.01300000
231.80	1.55500000	2.02300000
232.60	1.56900000	2.03300000
233.30	1.58400000	2.04200000
234.10	1.59600000	2.05000000
234.90	1.61100000	2.05800000
235.70	1.62600000	2.06600000
236.60	1.64000000	2.07400000
237.40	1.65400000	2.08300000
238.20	1.66800000	2.09000000
239.00	1.68300000	2.09800000
239.90	1.69900000	2.10600000
240.70	1.71500000	2.11300000
241.60	1.73100000	2.12000000
242.40	1.74900000	2.12800000
243.30	1.76600000	2.13600000
244.10	1.78500000	2.14200000
245.00	1.80300000	2.14900000
245.90	1.82200000	2.15300000
246.80	1.84300000	2.15700000
247.70	1.86200000	2.16400000
248.60	1.88100000	2.16600000
249.50	1.90200000	2.17000000
250.40	1.92200000	2.17300000
251.30	1.94200000	2.17500000
252.20	1.96400000	2.17700000
253.10	1.98500000	2.17800000
254.10	2.00700000	2.17900000
255.00	2.02900000	2.18000000
256.00	2.05100000	2.18000000
256.90	2.07400000	2.17900000
257.90	2.09700000	2.17700000
258.90	2.12100000	2.17400000
259.90	2.14400000	2.17000000
260.80	2.16800000	2.16600000
261.80	2.19100000	2.16000000
262.80	2.21500000	2.15300000
263.90	2.23900000	2.14500000
264.90	2.26200000	2.13600000
265.90	2.28600000	2.12500000
266.90	2.30900000	2.11400000
268.00	2.33200000	2.10100000
269.00	2.35300000	2.08600000
270.10	2.37300000	2.07000000
271.20	2.39300000	2.05400000
272.20	2.40900000	2.03600000
273.30	2.42700000	2.01800000
274.40	2.44100000	1.99900000
275.50	2.45400000	1.98000000
276.60	2.46600000	1.96100000
277.70	2.47700000	1.94200000
278.90	2.48700000	1.92300000
280.00	2.49500000	1.90400000
281.20	2.50300000	1.88600000
282.30	2.50800000	1.86700000
283.50	2.51300000	1.84900000
284.70	2.51700000	1.83100000
285.80	2.51900000	1.81400000
287.00	2.52100000	1.79800000
288.20	2.52100000	1.78300000
289.50	2.52100000	1.76800000
290.70	2.52100000	1.75600000
291.90	2.51900000	1.74300000
293.20	2.51800000	1.73200000
294.40	2.51700000	1.72200000
295.70	2.51600000	1.71200000
297.00	2.51400000	1.70300000
298.30	2.51300000	1.69500000
299.60	2.51200000	1.68700000
300.90	2.51100000	1.68000000
302.20	2.51000000	1.67300000
303.50	2.50900000	1.66600000
304.90	2.50800000	1.66100000
306.30	2.50700000	1.65500000
307.60	2.50600000	1.65000000
309.00	2.50600000	1.64500000
310.40	2.50500000	1.64100000
311.80	2.50400000	1.63700000
313.30	2.50300000	1.63300000
314.70	2.50300000	1.62900000
316.10	2.50200000	1.62600000
317.60	2.50200000	1.62300000
319.10	2.50200000	1.62100000
320.60	2.50200000	1.61900000
322.10	2.50200000	1.61700000
323.60	2.50200000	1.61500000
325.10	2.50200000	1.61400000
326.70	2.50200000	1.61300000
328.20	2.50200000	1.61200000
329.80	2.50300000	1.61200000
331.40	2.50300000	1.61200000
333.00	2.50400000	1.61200000
334.60	2.50500000	1.61300000
336.30	2.50600000	1.61400000
337.90	2.50800000	1.61400000
339.60	2.50900000	1.61600000
341.30	2.51100000	1.61700000
343.00	2.51300000	1.61900000
344.70	2.51500000	1.62100000
346.50	2.51700000	1.62400000
348.20	2.51900000	1.62600000
350.00	2.52200000	1.62900000
351.80	2.52500000	1.63300000
353.60	2.52900000	1.63600000
355.50	2.53200000	1.64000000
357.30	2.53600000	1.64400000
359.20	2.54000000	1.64800000
361.10	2.54500000	1.65200000
363.00	2.54900000	1.65700000
364.90	2.55500000	1.66200000
366.90	2.56000000	1.66700000
368.80	2.56600000	1.67300000
370.80	2.57200000	1.67900000
372.80	2.57900000	1.68500000
374.90	2.58600000	1.69100000
376.90	2.59400000	1.69700000
379.00	2.60200000	1.70400000
381.10	2.61000000	1.71100000
383.30	2.62000000	1.71800000
385.40	2.63000000	1.72600000
387.60	2.64000000	1.73300000
389.80	2.65200000	1.74200000
392.00	2.66400000	1.75000000
394.30	2.67700000	1.75900000
396.50	2.69100000	1.76700000
398.90	2.70600000	1.77600000
401.20	2.72200000	1.78500000
403.50	2.74000000	1.79400000
405.90	2.75900000	1.80400000
408.30	2.78100000	1.81300000
410.80	2.80400000	1.82200000
413.30	2.83100000	1.82900000
415.80	2.86000000	1.83500000
418.30	2.89100000	1.83800000
420.90	2.92300000	1.83700000
423.50	2.95700000	1.83300000
426.10	2.99100000	1.82300000
428.80	3.02300000	1.81000000
431.50	3.05200000	1.79300000
434.20	3.07800000	1.77400000
437.00	3.10100000	1.75400000
439.80	3.12000000	1.73400000
442.60	3.13600000	1.71300000
445.50	3.15000000	1.69400000
448.40	3.16200000	1.67500000
451.30	3.17200000	1.65800000
454.30	3.18100000	1.64200000
457.30	3.19000000	1.62700000
460.40	3.19700000	1.61300000
463.50	3.20300000	1.60100000
466.70	3.21000000	1.59000000
469.90	3.21600000	1.58100000
473.10	3.22200000	1.57200000
476.40	3.22900000	1.56400000
479.70	3.23600000	1.55800000
483.10	3.24200000	1.55400000
486.50	3.25100000	1.54900000
490.00	3.25900000	1.54600000
493.50	3.26800000	1.54500000
497.10	3.27800000	1.54400000
500.70	3.29000000	1.54500000
504.40	3.30300000	1.54600000
508.20	3.31800000	1.54900000
512.00	3.33500000	1.55300000
515.80	3.35500000	1.55800000
519.70	3.37900000	1.56400000
523.70	3.40700000	1.57000000
527.70	3.44200000	1.57600000
531.80	3.48500000	1.57900000
536.00	3.53600000	1.57400000
540.20	3.59100000	1.55900000
544.50	3.64800000	1.53000000
548.80	3.69900000	1.48800000
553.20	3.74100000	1.43700000
557.70	3.77200000	1.38300000
562.30	3.79400000	1.32800000
567.00	3.80800000	1.27500000
571.70	3.81600000	1.22400000
576.50	3.81900000	1.17500000
581.40	3.81800000	1.13100000
586.30	3.81400000	1.09000000
591.40	3.80900000	1.05000000
596.50	3.80300000	1.01400000
601.80	3.79500000	0.97950000
607.10	3.78600000	0.94760000
612.50	3.77600000	0.91750000
618.00	3.76600000	0.88870000
623.70	3.75600000	0.86300000
629.40	3.74500000	0.83800000
635.20	3.73500000	0.81450000
641.10	3.72400000	0.79360000
647.20	3.71400000	0.77250000
653.40	3.70300000	0.75300000
659.60	3.69100000	0.73560000
666.00	3.68200000	0.71810000
672.60	3.67100000	0.70250000
679.20	3.66100000	0.68600000
686.00	3.65200000	0.67330000
693.00	3.64300000	0.65680000
700.00	3.63300000	0.64290000
707.20	3.62400000	0.63070000
714.60	3.61700000	0.61570000
722.10	3.60800000	0.60260000
729.80	3.60000000	0.59150000
737.70	3.59300000	0.57920000
745.70	3.58500000	0.56910000
753.90	3.57600000	0.55940000
762.20	3.57000000	0.55020000
770.80	3.56200000	0.54230000
779.60	3.55400000	0.53440000
788.50	3.54800000	0.52730000
797.70	3.54100000	0.51970000
807.10	3.53300000	0.50620000
816.70	3.52400000	0.50780000
826.50	3.51800000	0.49990000
