; From SOPRA S.A. http://www.sopra-sa.com/indices.htm
; Filename    Symbol               Range (nm)     Description
; HGCDTE2     Hg0.8Cd0.2Te        200      900    Mercury Cadmium Telluride (20% Cd)
; lambda/nm       n         k
200.00	1.47000000	1.65000000
205.43	1.45355000	1.69275000
210.85	1.41882000	1.71752000
216.28	1.41010000	1.77599000
221.71	1.43201000	1.86381000
227.13	1.48225000	1.95190000
232.56	1.56965000	2.03260000
237.98	1.66480000	2.08784000
243.41	1.76999000	2.13616000
248.84	1.88636000	2.16679000
254.26	2.01091000	2.17819000
259.69	2.14124000	2.17160000
265.12	2.26738000	2.13243000
270.54	2.38047000	2.06280000
275.97	2.45854000	1.97189000
281.40	2.50217000	1.88207000
286.82	2.52059000	1.80059000
292.25	2.51877000	1.74126000
297.67	2.51372000	1.69909000
303.10	2.50935000	1.66954000
308.53	2.50623000	1.64684000
313.95	2.50284000	1.63148000
319.38	2.50200000	1.62062000
324.81	2.50200000	1.61464000
330.23	2.50275000	1.61224000
335.66	2.50560000	1.61373000
341.09	2.51078000	1.61687000
346.51	2.51701000	1.62402000
351.94	2.52526000	1.63326000
357.36	2.53603000	1.64403000
362.79	2.54850000	1.65650000
368.22	2.56429000	1.67139000
373.64	2.58208000	1.68746000
379.07	2.60226000	1.70423000
384.50	2.62579000	1.72284000
389.92	2.65268000	1.74246000
395.35	2.68361000	1.76287000
400.78	2.71986000	1.78333000
406.20	2.76307000	1.80469000
411.63	2.81605000	1.82276000
417.05	2.87555000	1.83650000
422.48	2.94406000	1.83398000
427.91	3.01188000	1.81387000
433.33	3.06917000	1.77977000
438.76	3.11219000	1.74143000
444.19	3.14308000	1.70322000
449.61	3.16560000	1.66847000
455.04	3.18321000	1.63868000
460.47	3.19663000	1.61372000
465.89	3.20785000	1.59352000
471.32	3.21883000	1.57729000
476.74	3.22966000	1.56348000
482.17	3.24019000	1.55538000
487.60	3.25308000	1.54878000
493.02	3.26709000	1.54514000
498.45	3.28262000	1.54437000
503.88	3.30120000	1.54585000
509.30	3.32293000	1.55016000
514.73	3.35059000	1.55689000
520.16	3.38218000	1.56468000
525.58	3.42346000	1.57282000
531.01	3.47669000	1.57842000
536.43	3.54168000	1.57245000
541.86	3.61301000	1.54780000
547.29	3.68105000	1.50277000
552.71	3.73635000	1.44264000
558.14	3.77410000	1.37774000
563.57	3.79777000	1.31372000
568.99	3.81139000	1.25338000
574.42	3.81770000	1.19624000
579.84	3.81831000	1.14496000
585.27	3.81484000	1.09860000
590.70	3.80968000	1.05550000
596.12	3.80344000	1.01665000
601.55	3.79537000	0.98112400
606.98	3.78145000	0.94834100
612.40	3.77160000	0.91804000
617.83	3.76631000	0.88959300
623.26	3.75678000	0.86500200
628.68	3.74638000	0.84114800
634.11	3.73688000	0.81892200
639.53	3.72691000	0.79914400
644.96	3.71767000	0.78024300
650.39	3.70834000	0.76247400
655.81	3.69832000	0.74622500
661.24	3.68869000	0.73111400
666.67	3.68088000	0.71652400
672.09	3.67184000	0.70369800
677.52	3.66354000	0.69020100
682.95	3.65604000	0.67900400
688.37	3.64895000	0.66770800
693.80	3.64186000	0.65521400
699.22	3.63410000	0.64443900
704.65	3.62718000	0.63501800
710.08	3.62127000	0.62486700
715.50	3.61591000	0.61412100
720.93	3.60940000	0.60464300
726.36	3.60357000	0.59646400
731.78	3.59824000	0.58841200
737.21	3.59343000	0.57996400
742.64	3.58806000	0.57296800
748.06	3.58240000	0.56630600
753.49	3.57645000	0.55988700
758.91	3.57237000	0.55384100
764.34	3.56800000	0.54823300
769.77	3.56296000	0.54324800
775.19	3.55800000	0.53835500
780.62	3.55331000	0.53358600
786.05	3.54965000	0.52925700
791.47	3.54573000	0.52484400
796.90	3.54161000	0.52036100
802.33	3.53706000	0.51305600
807.75	3.53238000	0.50630900
813.18	3.52730000	0.50721300
818.60	3.52283000	0.50626400
824.03	3.51951000	0.50189000
829.46	3.51727000	0.49588000
834.88	3.51594000	0.48850400
840.31	3.51461000	0.48112900
845.74	3.51329000	0.47375400
851.16	3.51196000	0.46637800
856.59	3.51063000	0.45900300
862.02	3.50930000	0.45162700
867.44	3.50797000	0.44425200
872.87	3.50664000	0.43687700
878.29	3.50531000	0.42950100
883.72	3.50398000	0.42212600
889.15	3.50265000	0.41475000
894.57	3.50133000	0.40737500
900.00	3.50000000	0.40000000
