; From SOPRA S.A. http://www.sopra-sa.com/indices.htm
; Filename    Symbol               Range (nm)     Description
; INASOX      InAsO               206      774    Indium Arsenide Oxide
; lambda/nm       n         k
206.64	1.87500000	0.56700000
210.14	1.92100000	0.57260000
213.77	1.97100000	0.56970000
217.52	2.02500000	0.55550000
221.40	2.07900000	0.52840000
225.43	2.12700000	0.48770000
229.60	2.16600000	0.43550000
233.93	2.19200000	0.37560000
238.43	2.20300000	0.31310000
243.11	2.20000000	0.25310000
247.97	2.18600000	0.19910000
253.03	2.16400000	0.15290000
258.30	2.13800000	0.11490000
263.80	2.11000000	0.08452000
269.53	2.08200000	0.06076000
275.52	2.05400000	0.04247000
281.78	2.02800000	0.02858000
288.34	2.00400000	0.01817000
295.20	1.98100000	0.01046000
302.40	1.96000000	0.00485300
309.96	1.94100000	0.00085500
317.91	1.92300000	0.00000000
326.28	1.90700000	0.00000000
335.10	1.89200000	0.00000000
344.40	1.87800000	0.00000000
354.24	1.86500000	0.00000000
364.66	1.85300000	0.00000000
375.71	1.84200000	0.00000000
387.45	1.83200000	0.00000000
399.95	1.82200000	0.00000000
413.28	1.81300000	0.00000000
427.54	1.80500000	0.00000000
442.80	1.79700000	0.00000000
459.20	1.78900000	0.00000000
476.87	1.78200000	0.00000000
495.94	1.77600000	0.00000000
516.60	1.76900000	0.00000000
539.07	1.76300000	0.00000000
563.57	1.75700000	0.00000000
590.41	1.75200000	0.00000000
619.93	1.74600000	0.00000000
652.55	1.74100000	0.00000000
688.81	1.73600000	0.00000000
729.32	1.73100000	0.00000000
774.91	1.72600000	0.00000000
