; From SOPRA S.A. http://www.sopra-sa.com/indices.htm
; Filename    Symbol               Range (nm)     Description
; INGAAS      In0.53Ga0.74As      206     1239    Indium Gallium Arsenide
; lambda/nm       n         k
206.64	1.34397000	2.26768000
207.33	1.32507400	2.21423200
208.03	1.30659100	2.28755600
208.73	1.32171100	2.27333100
209.43	1.30442300	2.26295000
210.14	1.32016000	2.26940800
210.86	1.31253700	2.29052200
211.58	1.30740500	2.27934000
212.30	1.30553400	2.28757600
213.03	1.29928400	2.29994000
213.77	1.30330300	2.30906800
214.51	1.30076600	2.32569300
215.25	1.29999400	2.34121100
216.00	1.30202400	2.35360700
216.76	1.30283400	2.36387200
217.52	1.30442400	2.37707300
218.28	1.30217900	2.39367500
219.06	1.30813400	2.41140200
219.83	1.31017800	2.42464300
220.61	1.31237300	2.44459800
221.40	1.31638200	2.46171700
222.20	1.32161600	2.47672900
222.99	1.32793600	2.49320600
223.80	1.33254300	2.51129600
224.61	1.33799300	2.52966900
225.43	1.34493400	2.54683200
226.25	1.35233000	2.56456000
227.08	1.35965700	2.58621700
227.91	1.36851100	2.60514800
228.75	1.37694000	2.62469600
229.60	1.38765200	2.64568400
230.46	1.39773300	2.66476100
231.32	1.40781900	2.68540100
232.18	1.41962300	2.70580300
233.05	1.43123400	2.72687600
233.93	1.44339200	2.74887600
234.82	1.45720700	2.77050600
235.71	1.46905300	2.79506000
236.61	1.48339000	2.81685600
237.52	1.49751300	2.84004200
238.43	1.51388100	2.86469300
239.35	1.52987900	2.88952700
240.28	1.54701300	2.91427600
241.22	1.56428900	2.93965000
242.16	1.58293100	2.96647700
243.11	1.60152400	2.99456900
244.07	1.62311500	3.02329300
245.03	1.64555000	3.05216300
246.00	1.66907500	3.08311700
246.98	1.69531000	3.11456300
247.97	1.72477700	3.14811600
248.97	1.75653900	3.18263700
249.97	1.79092000	3.21683100
250.98	1.82933200	3.25205600
252.00	1.87043000	3.28789100
253.03	1.91612800	3.32218800
254.07	1.96416300	3.35544900
255.11	2.01833400	3.38754600
256.17	2.07516100	3.41707300
257.23	2.13717700	3.44420700
258.30	2.20266800	3.46763500
259.38	2.27250600	3.48721000
260.47	2.34523400	3.50236800
261.57	2.42046500	3.51255800
262.68	2.49696500	3.51680500
263.80	2.57661300	3.51560900
264.93	2.65660200	3.50794100
266.06	2.73621900	3.49468300
267.21	2.81506700	3.47508600
268.37	2.89260700	3.44887600
269.53	2.96635900	3.41743700
270.71	3.03706200	3.38078200
271.90	3.10389200	3.34045100
273.10	3.16647600	3.29728800
274.30	3.22578800	3.25144100
275.52	3.28061100	3.20224600
276.75	3.33488900	3.15125600
277.99	3.38340500	3.09688900
279.25	3.42996500	3.03956400
280.51	3.46999500	2.97941600
281.78	3.50597500	2.91657000
283.07	3.53593000	2.85238600
284.37	3.55897500	2.78683900
285.68	3.57536900	2.72290900
287.00	3.58657000	2.66101900
288.34	3.59335000	2.60210000
289.69	3.59634500	2.54592600
291.05	3.59574200	2.49228600
292.42	3.59314500	2.44250500
293.80	3.58781900	2.39555600
295.20	3.58047300	2.35199600
296.62	3.57192000	2.31094200
298.04	3.56176100	2.27303600
299.48	3.54972600	2.23793200
300.93	3.53728900	2.20516700
302.40	3.52495700	2.17462800
303.89	3.51277000	2.14648100
305.38	3.50047200	2.12027800
306.89	3.48852100	2.09630100
308.42	3.47656900	2.07436900
309.96	3.46458000	2.05398200
311.52	3.45324700	2.03510400
313.09	3.44209000	2.01768200
314.68	3.43118900	2.00163900
316.29	3.42143700	1.98733100
317.91	3.41132200	1.97446900
319.55	3.40180100	1.96255700
321.21	3.39319000	1.95124000
322.88	3.38505900	1.94079300
324.57	3.37710600	1.93163900
326.28	3.36931600	1.92341800
328.00	3.36231700	1.91603300
329.75	3.35582000	1.90972100
331.51	3.35086000	1.90327500
333.29	3.34530900	1.89838900
335.10	3.34038600	1.89371700
336.92	3.33627300	1.89003800
338.76	3.33272700	1.88648300
340.62	3.32913600	1.88360500
342.50	3.32691900	1.88143000
344.40	3.32490800	1.87948200
346.33	3.32338900	1.87836100
348.27	3.32235600	1.87760400
350.24	3.32164900	1.87729800
352.23	3.32135000	1.87777200
354.24	3.32204500	1.87843100
356.28	3.32333300	1.87983700
358.34	3.32489500	1.88141800
360.42	3.32690100	1.88354500
362.53	3.32953400	1.88620400
364.66	3.33331700	1.88911500
366.82	3.33733200	1.89298900
369.00	3.34215600	1.89674600
371.21	3.34783000	1.90122900
373.45	3.35423800	1.90652900
375.71	3.36156700	1.91220800
378.00	3.36940100	1.91810200
380.32	3.37817600	1.92415100
382.67	3.38804000	1.93101500
385.05	3.39862900	1.93829500
387.45	3.41090600	1.94603000
389.89	3.42440200	1.95435900
392.36	3.43886300	1.96323000
394.86	3.45520800	1.97237400
397.39	3.47250600	1.98160700
399.95	3.49152500	1.99125600
402.55	3.51257900	2.00129300
405.18	3.53598900	2.01149900
407.85	3.56233500	2.02195300
410.55	3.59025700	2.03271400
413.28	3.62273700	2.04320700
416.06	3.65712100	2.05259400
418.87	3.69564800	2.06134500
421.72	3.73916100	2.06632800
424.61	3.78650400	2.06919700
427.54	3.83862300	2.06685600
430.50	3.89416400	2.05783300
433.51	3.95099300	2.04099600
436.57	4.00576700	2.01713600
439.66	4.05676700	1.98654900
442.80	4.10278600	1.95175500
445.99	4.14327100	1.91446800
449.22	4.17919300	1.87672000
452.50	4.21227600	1.83900800
455.83	4.24313100	1.80403900
459.20	4.27283600	1.77201100
462.63	4.30467700	1.74160600
466.11	4.33934600	1.71272800
469.64	4.38244200	1.67774900
473.23	4.43192400	1.63808700
476.87	4.48402700	1.58662900
480.56	4.53337000	1.52303400
484.32	4.57485600	1.44474400
488.13	4.60211200	1.35817800
492.00	4.61437600	1.26768400
495.94	4.61276800	1.18073000
499.94	4.60048500	1.10165900
504.00	4.58103400	1.02904200
508.14	4.55618200	0.96312600
512.34	4.52813800	0.90417800
516.60	4.49944700	0.85025100
520.95	4.46934000	0.80558300
525.36	4.43894300	0.76516300
529.85	4.40848800	0.72924300
534.42	4.37945300	0.69392700
539.07	4.35090400	0.66457100
543.79	4.32330000	0.63815600
548.61	4.29676500	0.61215600
553.51	4.27091300	0.58682400
558.49	4.24614700	0.56514300
563.57	4.22305800	0.54372400
568.74	4.20016400	0.52455600
574.01	4.17757400	0.50748700
579.37	4.15604100	0.49200900
584.84	4.13483500	0.47906400
590.41	4.11419500	0.46577600
596.08	4.09439800	0.45218400
601.87	4.07573600	0.44061500
607.77	4.05778600	0.42774300
613.79	4.04006300	0.41353500
619.93	4.02307000	0.40147600
626.19	4.00649000	0.39008100
632.58	3.99013200	0.37937500
639.10	3.97334600	0.37340700
645.76	3.95804600	0.36501600
652.55	3.94269800	0.35629200
659.50	3.92773200	0.35081200
666.59	3.91272200	0.34728800
673.83	3.89956800	0.33995300
681.24	3.88689100	0.33133400
688.81	3.87391300	0.32667600
696.55	3.86160900	0.31753600
704.46	3.85025600	0.30917900
712.56	3.83873000	0.30673200
720.84	3.82795700	0.29783300
729.32	3.81634200	0.29739400
738.01	3.80589700	0.29123800
746.90	3.79670100	0.28423400
756.01	3.78590900	0.28617100
765.34	3.77412000	0.29128700
774.91	3.76358000	0.28175400
784.72	3.75365000	0.28056200
794.78	3.74429300	0.28277800
805.10	3.73375000	0.28716300
815.69	3.72620200	0.28474500
826.57	3.72030400	0.26089500
