; Refractive index spectrum for InP by Aspnes
;
; D. E. Aspnes and A. A. Studna. Dielectric functions and optical parameters of Si, Ge, GaP, GaAs, GaSb, InP, InAs, and InSb from 1.5 to 6.0 eV, <a href="http://dx.doi.org/10.1103/PhysRevB.27.985"><i>Phys. Rev. B</i> <b>27</b>, 985-1009 (1983)</a>
;
; Crysal orientation: <100>; Undoped; Room temperature
;
; lambda/nm    n     k
206.60 	1.33600000 	2.11300000 
210.10 	1.30100000 	2.18300000 
213.80 	1.29900000 	2.28000000 
217.50 	1.32500000 	2.38300000 
221.40 	1.37500000 	2.48400000 
225.40 	1.42600000 	2.56200000 
229.60 	1.45500000 	2.65200000 
233.90 	1.48200000 	2.80200000 
238.40 	1.55800000 	3.01600000 
243.10 	1.74500000 	3.29100000 
248.00 	2.13100000 	3.49500000 
253.00 	2.54600000 	3.51400000 
258.30 	2.98400000 	3.51700000 
263.80 	3.56000000 	3.22300000 
269.50 	3.80000000 	2.63700000 
275.50 	3.69700000 	2.18600000 
281.80 	3.52700000 	1.94800000 
288.30 	3.38400000 	1.82600000 
295.20 	3.27500000 	1.76200000 
302.40 	3.19600000 	1.73500000 
310.00 	3.14100000 	1.73000000 
317.90 	3.10800000 	1.74400000 
326.30 	3.09500000 	1.77300000 
335.10 	3.10300000 	1.81600000 
344.40 	3.13300000 	1.87200000 
354.20 	3.19300000 	1.94800000 
364.70 	3.29900000 	2.06000000 
375.70 	3.57600000 	2.20900000 
387.50 	3.97600000 	2.14300000 
399.90 	4.41500000 	1.73500000 
413.30 	4.39500000 	1.24700000 
427.50 	4.25600000 	0.96400000 
442.80 	4.12100000 	0.78600000 
459.20 	4.00400000 	0.66700000 
476.90 	3.90300000 	0.57900000 
495.90 	3.81800000 	0.51100000 
516.60 	3.74500000 	0.45700000 
539.10 	3.68200000 	0.41600000 
563.60 	3.62900000 	0.38000000 
590.40 	3.58500000 	0.34700000 
619.90 	3.54900000 	0.31700000 
652.50 	3.51700000 	0.29300000 
688.80 	3.49200000 	0.27000000 
729.30 	3.47600000 	0.24200000 
774.90 	3.46700000 	0.21800000 
826.60 	3.45600000 	0.20300000 
