; From SOPRA S.A. http://www.sopra-sa.com/indices.htm
; Filename    Symbol               Range (nm)     Description
; INSBOX      InSbO               206      774    Indium Antimonide Oxide
; lambda/nm       n         k
206.64	1.80500000	0.85100000
210.14	1.83100000	0.86200000
213.77	1.86100000	0.87250000
217.52	1.89400000	0.88190000
221.40	1.93100000	0.88960000
225.43	1.97200000	0.89480000
229.60	2.01800000	0.89630000
233.93	2.06800000	0.89290000
238.43	2.12100000	0.88300000
243.11	2.17700000	0.86530000
247.97	2.23500000	0.83810000
253.03	2.29100000	0.80040000
258.30	2.34300000	0.75210000
263.80	2.38700000	0.69390000
269.53	2.42100000	0.62790000
275.52	2.44300000	0.55710000
281.78	2.45300000	0.48530000
288.34	2.45000000	0.41600000
295.20	2.43600000	0.35170000
302.40	2.41500000	0.29450000
309.96	2.38800000	0.24510000
317.91	2.35800000	0.20350000
326.28	2.32700000	0.16920000
335.10	2.29500000	0.14140000
344.40	2.26400000	0.11910000
354.24	2.23500000	0.10160000
364.66	2.20800000	0.08794000
375.71	2.18200000	0.07742000
387.45	2.15900000	0.06943000
399.95	2.13700000	0.06347000
413.28	2.11800000	0.05911000
427.54	2.10000000	0.05602000
442.80	2.08400000	0.05392000
459.20	2.06900000	0.05258000
476.87	2.05600000	0.05184000
495.94	2.04400000	0.05155000
516.60	2.03300000	0.05159000
539.07	2.02297500	0.05184000
563.57	2.01390100	0.05217800
590.41	2.00575000	0.05248600
619.93	1.99850000	0.05264200
652.55	1.99212600	0.05252500
688.81	1.98660200	0.05201700
729.32	1.98190000	0.05099500
774.91	1.97800000	0.04934000
