;UO 
;UO LiF.ASC: Values of n and k for cubic lithium fluoride from various
;UO references in HOCI (pg. 680) & HOCII (pg. 12).  References are
;UO A, 1, 2, 3, 4, 6, 7, 8, 11, 12, 13, 14, 18, 19, 21, 23, 24, 26. 
;UO 
;UO Copyright (c) 1995 by the Optical Society of America.  Some data
;UO from HANDBOOK OF OPTICAL CONSTANTS IN SOLIDS edited by Edward D.
;UO Palik. Copyright (c) 1985 by Academic Press, Inc. Reproduced by
;UO permission of the publisher.
;UO --------------------------------------------------------------    
;UO        nm        n        k
;UO --------------------------------------------------------------
;N  3
;L    Wavelength[nm]        n        k
103.30	2.28000000	0.11000000
105.50	2.08000000	0.04000000
106.00	1.91400000	0.00000160
107.80	1.94000000	0.00000094
112.70	1.77000000	0.00000081
121.53	1.62400000	0.00000077
123.98	1.60600000	0.00000077
123.98	1.60000000	0.0
124.90	1.59900000	0.0
127.60	1.58300000	0.0
130.15	1.56900000	0.0
132.50	1.55800000	0.0
135.00	1.54800000	0.0
137.70	1.53800000	0.0
137.80	1.53000000	0.0
140.00	1.53000000	0.0
145.00	1.51500000	0.0
150.00	1.50300000	0.0
155.00	1.49300000	0.0
155.00	1.49000000	0.0
160.00	1.48400000	0.0
170.00	1.46900000	0.0
177.10	1.46000000	0.0
177.12	1.46100000	0.0
180.00	1.45800000	0.0
180.00	1.45330000	0.0
182.00	1.45160000	0.0
184.00	1.45000000	0.0
186.00	1.44840000	0.0
188.00	1.44690000	0.0
190.00	1.44550000	0.0
190.00	1.44900000	0.0
192.00	1.44410000	0.0
194.00	1.44280000	0.0
196.00	1.44150000	0.0
198.00	1.44030000	0.0
200.00	1.43910000	0.0
200.00	1.44100000	0.0
205.00	1.43630000	0.0
210.00	1.43370000	0.0
215.00	1.43130000	0.0
220.00	1.42910000	0.0
225.00	1.42710000	0.0
230.00	1.42520000	0.0
235.00	1.42350000	0.0
240.00	1.42190000	0.0
245.00	1.42030000	0.0
250.00	1.41890000	0.0
255.00	1.41760000	0.0
260.00	1.41640000	0.0
265.00	1.41520000	0.0
270.00	1.41410000	0.0
275.00	1.41310000	0.0
280.00	1.41210000	0.0
285.00	1.41120000	0.0
290.00	1.41030000	0.0
295.00	1.40950000	0.0
300.00	1.40870000	0.0
310.00	1.40730000	0.0
320.00	1.40600000	0.0
330.00	1.40480000	0.0
340.00	1.40370000	0.0
350.00	1.40280000	0.0
351.10	0.0	0.00000005
360.00	1.40190000	0.0
363.80	0.0	0.00000003
370.00	1.40100000	0.0
380.00	1.40030000	0.0
390.00	1.39960000	0.0
400.00	1.39890000	0.0
420.00	1.39780000	0.0
440.00	1.39680000	0.0
457.90	0.0	0.00000001
460.00	1.39590000	0.0
480.00	1.39510000	0.0
488.00	0.0	0.00000001
500.00	1.39440000	0.0
514.50	0.0	0.00000001
520.00	1.39380000	0.0
540.00	1.39330000	0.0
560.00	1.39280000	0.0
580.00	1.39230000	0.0
600.00	1.39190000	0.0
620.00	1.39150000	0.0
640.00	1.39120000	0.0
660.00	1.39080000	0.0
680.00	1.39050000	0.0
700.00	1.39020000	0.0
720.00	1.39000000	0.0
740.00	1.38970000	0.0
760.00	1.38940000	0.0
780.00	1.38920000	0.0
800.00	1.38900000	0.0
820.00	1.38880000	0.0
840.00	1.38860000	0.0
860.00	1.38840000	0.0
880.00	1.38820000	0.0
900.00	1.38800000	0.0
920.00	1.38780000	0.0
940.00	1.38760000	0.0
960.00	1.38750000	0.0
980.00	1.38730000	0.0
1000.00	1.38710000	0.0
1050.00	1.38670000	0.0
1100.00	1.38630000	0.0
1150.00	1.38590000	0.0
1200.00	1.38550000	0.0
1250.00	1.38510000	0.0
1300.00	1.38470000	0.0
1350.00	1.38440000	0.0
1400.00	1.38400000	0.0
1450.00	1.38360000	0.0
1500.00	1.38320000	0.0
1550.00	1.38280000	0.0
1600.00	1.38230000	0.0
1650.00	1.38190000	0.0
1700.00	1.38150000	0.0
1750.00	1.38100000	0.0
1800.00	1.38060000	0.0
1850.00	1.38010000	0.0
1900.00	1.37960000	0.0
1950.00	1.37910000	0.0
2000.00	1.37870000	0.0
2100.00	1.37770000	0.0
2200.00	1.37660000	0.0
2300.00	1.37550000	0.0
2400.00	1.37440000	0.0
