; Refractive index spectrum for Lu by Garcia-Cortes
;
; S. García-Cortés, L. Rodríguez-de Marcos, J. I. Larruquert, J. A. Aznárez, J. A. Méndez, L. Poletto, F. Frassetto, A. M. Malvezzi, A. Giglia, N. Mahne and S. Nannarone. Transmittance and optical constants of Lu films in the 3–1800 eV spectral range, <a href="http://dx.doi.org/10.1063/1.3481062"><i>J. Appl. Phys.</i> <b>108</b>, 063514 (2010)</a><br>* Numerical data kindly provided by Juan Larruquert.
;
; Density: 9.84 g/cm<sup>3</sup>
;
; lambda/nm    n     k
103.32 	0.53601333 	0.71604402 
107.82 	0.57509611 	0.82324669 
112.57 	0.62159149 	0.88212473 
118.08 	0.66531928 	0.96611760 
123.98 	0.72842358 	1.04238940 
130.51 	0.79322843 	1.09403190 
137.76 	0.85939995 	1.15752400 
145.86 	0.93842469 	1.20650740 
154.98 	1.02053110 	1.23991870 
165.31 	1.09465070 	1.25131190 
177.12 	1.13761640 	1.24653720 
206.64 	1.18298230 	1.31675680 
247.97 	1.18194180 	1.43105840 
268.75 	1.15044620 	1.52780400 
292.30 	1.11626380 	1.66039690 
309.96 	1.08644990 	1.78168270 
329.82 	1.08074160 	1.96209740 
358.59 	1.12997720 	2.20664930 
391.63 	1.23077480 	2.47184750 
417.41 	1.34198130 	2.65842610 
427.11 	1.38631440 	2.71091920 
437.28 	1.42708820 	2.77512310 
445.23 	1.46539600 	2.82798330 
456.29 	1.52605000 	2.89036120 
467.92 	1.58531690 	2.93935410 
478.58 	1.63404950 	2.98577830 
486.51 	1.66825750 	3.01624580 
498.05 	1.71533040 	3.06424210 
511.93 	1.76957380 	3.11817070 
521.01 	1.80551900 	3.15729560 
550.27 	1.91428380 	3.26435330 
578.43 	2.02579740 	3.38638110 
604.62 	2.14322540 	3.47220780 
633.28 	2.26784590 	3.54831160 
664.80 	2.38677210 	3.60157020 
699.61 	2.49190290 	3.66013970 
734.59 	2.58096120 	3.71739090 
785.65 	2.68442160 	3.80652620 
802.82 	2.72615390 	3.85926470 
860.97 	2.84345840 	3.92332040 
939.31 	2.93785280 	4.06337160 
1020.32 	3.01685830 	4.21278190 
1109.37 	3.07431300 	4.38805260 
1197.92 	3.10394860 	4.58289580 
1281.25 	3.12213020 	4.79840140 
1322.55 	3.12777620 	4.90806010 
1400.85 	3.15078760 	5.14217780 
1449.72 	3.16389040 	5.27279050 
1502.81 	3.16968460 	5.43344540 
1559.20 	3.17032820 	5.60256510 
1604.74 	3.15829460 	5.75588730 
1653.02 	3.16557880 	5.95857540 
1704.29 	3.19743860 	6.15102630 
1757.90 	3.22746740 	6.34900510 
1816.00 	3.26549590 	6.57758930 
1878.08 	3.31448780 	6.81855260 
1944.55 	3.37951400 	7.09176350 
2015.90 	3.45625020 	7.37453910 
