; From SOPRA S.A. http://www.sopra-sa.com/indices.htm
; Filename    Symbol               Range (nm)     Description
; PD2SI-A     Pd2Si               177    12398    Palladium Silicide (perpendicular to c axis)
; lambda/nm       n         k
177.12	1.07500000	1.11500000
179.69	1.07200000	1.13600000
182.33	1.06400000	1.17800000
185.05	1.07200000	1.22800000
187.86	1.09500000	1.26000000
190.75	1.11300000	1.28800000
193.73	1.14500000	1.32300000
196.80	1.17200000	1.34700000
199.98	1.18800000	1.36200000
203.25	1.20300000	1.37800000
206.64	1.21900000	1.39400000
210.14	1.23400000	1.40900000
213.77	1.24500000	1.43000000
217.52	1.25500000	1.45000000
221.40	1.26200000	1.46300000
225.43	1.27800000	1.49700000
229.60	1.29100000	1.52500000
233.93	1.30400000	1.54400000
238.43	1.32400000	1.57300000
243.11	1.33200000	1.58800000
247.97	1.34400000	1.61200000
253.03	1.36000000	1.64400000
258.30	1.36400000	1.66100000
263.80	1.36900000	1.70900000
269.53	1.38800000	1.72100000
275.52	1.39400000	1.76700000
281.78	1.41700000	1.79600000
288.34	1.43700000	1.82700000
295.20	1.44300000	1.86600000
302.40	1.46100000	1.88700000
309.96	1.46100000	1.92900000
317.91	1.47300000	1.98000000
326.28	1.49500000	2.03400000
335.10	1.50500000	2.08000000
344.40	1.51900000	2.12500000
354.24	1.53700000	2.19500000
364.66	1.57000000	2.27400000
375.71	1.60600000	2.36100000
387.45	1.64200000	2.42500000
399.95	1.68700000	2.50900000
413.28	1.74900000	2.60300000
427.54	1.82600000	2.69500000
442.80	1.90000000	2.77100000
459.20	1.97800000	2.85100000
476.87	2.08800000	2.93000000
495.94	2.21000000	3.00000000
516.60	2.33600000	3.04200000
539.07	2.46300000	3.06100000
563.57	2.56700000	3.04900000
590.41	2.63300000	3.05000000
619.93	2.67400000	3.07200000
652.55	2.72500000	3.12400000
688.81	2.76500000	3.18200000
729.32	2.82300000	3.26400000
774.91	2.87700000	3.36300000
826.57	2.93500000	3.46500000
885.61	3.04400000	3.59100000
953.73	3.09100000	3.70500000
1033.21	3.13000000	3.88300000
1127.14	3.21700000	4.09900000
1239.85	3.33100000	4.45900000
1377.61	3.52000000	4.95200000
1549.81	3.74800000	5.14100000
1771.22	3.94400000	5.53500000
2066.42	4.00500000	6.07200000
2479.70	4.12200000	7.01900000
