; From SOPRA S.A. http://www.sopra-sa.com/indices.htm
; Filename    Symbol               Range (nm)     Description
; SIPOLY30
; lambda/nm       n         k
190.75	0.87568400	2.50042800
192.23	0.89296900	2.52913000
193.73	0.91112000	2.55764200
195.25	0.93002300	2.58586400
196.80	0.94930200	2.61265300
198.38	0.96844400	2.63633300
199.98	0.98775300	2.65840900
201.60	1.00717600	2.67896800
203.25	1.02727800	2.70060200
204.93	1.04967000	2.72880600
206.64	1.07117000	2.75494800
208.38	1.08667300	2.76691300
210.14	1.10354800	2.78063300
211.94	1.12649200	2.80604100
213.77	1.15380900	2.83839000
215.63	1.17902200	2.86912300
217.52	1.20120300	2.89894200
219.44	1.23488500	2.93862300
221.40	1.26371600	2.97802100
223.40	1.30117100	3.01887500
225.43	1.34504500	3.05902100
227.50	1.39725000	3.09560400
229.60	1.45364800	3.11885900
231.75	1.50893700	3.12681100
233.93	1.54750500	3.12547300
236.16	1.56589300	3.12731700
238.43	1.57543600	3.14226200
240.75	1.58044600	3.17043400
243.11	1.58580200	3.20991300
245.52	1.59577000	3.25977800
247.97	1.60946100	3.31901400
250.48	1.62977400	3.38592700
253.03	1.65402700	3.46037600
255.64	1.68634500	3.54209000
258.30	1.72480500	3.63241200
261.02	1.77106900	3.73406600
263.80	1.83052100	3.85067100
266.63	1.90858800	3.98567100
269.53	2.01948500	4.13602100
272.49	2.17306700	4.28753500
275.52	2.37200100	4.42204800
278.62	2.69240400	4.56315500
281.78	2.86729200	4.61059000
285.02	3.17054200	4.67317000
288.34	3.56942700	4.65472100
291.73	3.94849900	4.44095000
295.20	4.16205100	4.14286700
298.76	4.25504700	3.89161700
302.40	4.29948900	3.69642100
306.14	4.32366000	3.54703400
309.96	4.34390800	3.42930200
313.89	4.37083100	3.33476500
317.91	4.40204500	3.25740800
322.04	4.44196300	3.19126700
326.28	4.49057700	3.13223300
330.63	4.54551000	3.07889800
335.10	4.60680900	3.03095400
339.69	4.67499800	2.99082000
344.40	4.75681800	2.95976600
349.25	4.86299400	2.94489900
354.24	5.02818700	2.94673300
359.38	5.31519100	2.92476000
364.66	5.70664100	2.69813200
370.11	5.93460400	2.21060800
375.71	5.81968400	1.79454700
381.49	5.68380700	1.38801700
387.45	5.53171600	1.21074400
393.60	5.32039500	1.05721300
399.95	5.20212900	0.94947700
406.51	5.08309400	0.88494100
413.28	4.98224600	0.81263000
420.29	4.89573000	0.75401500
427.54	4.81991500	0.70433500
435.04	4.74878200	0.65716700
442.80	4.68375500	0.61305900
450.86	4.62375200	0.56987300
459.20	4.56817000	0.52800500
467.87	4.51618000	0.48693000
476.87	4.46768100	0.44875000
486.22	4.42166600	0.41473500
495.94	4.37788700	0.38376400
506.06	4.33577400	0.35567300
516.60	4.29500300	0.32915400
527.60	4.25534900	0.30260900
539.07	4.21652700	0.27666000
551.05	4.17931400	0.25207100
563.57	4.14000700	0.22745700
576.68	4.09866900	0.20344900
590.41	4.06348100	0.18399500
604.81	4.03319700	0.16780900
619.93	4.00344900	0.15128500
635.82	3.97427000	0.13473900
652.55	3.94411900	0.11840700
670.19	3.91352100	0.10261600
688.81	3.88426300	0.08894700
708.49	3.85658300	0.07711400
729.32	3.82958100	0.06601200
751.43	3.80284300	0.05562500
774.91	3.77814700	0.04562100
799.90	3.75424400	0.03590700
826.57	3.72801800	0.02776800
855.07	3.70018800	0.02189700
885.61	3.67273400	0.01474600
918.41	3.64807700	0.00609800
953.73	3.62569100	0.00226800
991.88	3.60409000	0.00157800
1033.21	3.58560300	0.00155700
1078.13	3.56929500	0.00153800
1127.14	3.55452100	0.00107500
1180.81	3.54138200	0.00106500
1239.85	3.52669000	0.00105300
1305.11	3.51085000	0.00104000
1377.61	3.49815200	0.00000000
1458.65	3.48846400	0.00000000
1549.81	3.47748800	0.00101400
1653.14	3.46650800	0.00000000
1771.22	3.45664900	0.00000000
1907.46	3.44908100	0.00000000
2066.42	3.44496900	0.00000000
2254.28	3.44719500	0.00000000
2479.70	3.45391300	0.00000000
