; From SOPRA S.A. http://www.sopra-sa.com/indices.htm
; Filename    Symbol               Range (nm)     Description
; SIPOLY10
; lambda/nm       n         k
190.75	0.84528700	2.63334200
192.23	0.86490700	2.66379400
193.73	0.88535300	2.69399200
195.25	0.90647800	2.72380900
196.80	0.92779900	2.75175100
198.38	0.94865800	2.77563100
199.98	0.96944300	2.79741700
201.60	0.99007700	2.81722000
203.25	1.01128700	2.83842100
204.93	1.03513200	2.86818600
206.64	1.05752600	2.89525200
208.38	1.07189900	2.90381500
210.14	1.08774700	2.91467200
211.94	1.11111600	2.94077300
213.77	1.13982800	2.97592400
215.63	1.16553200	3.00891700
217.52	1.18695200	3.04076600
219.44	1.22293700	3.08553800
221.40	1.25242500	3.12979400
223.40	1.29292600	3.17594000
225.43	1.34150200	3.22081700
227.50	1.40064000	3.26074900
229.60	1.46504200	3.28347800
231.75	1.52777300	3.28641200
233.93	1.56838000	3.27702700
236.16	1.58236200	3.27162200
238.43	1.58439000	3.28325300
240.75	1.58008400	3.31208900
243.11	1.57585800	3.35574000
245.52	1.57716400	3.41303600
247.97	1.58305300	3.48267700
250.48	1.59714800	3.56250700
253.03	1.61580600	3.65234000
255.64	1.64440400	3.75192500
258.30	1.67983100	3.86289100
261.02	1.72440700	3.98892300
263.80	1.78526100	4.13492300
266.63	1.86957100	4.30550300
269.53	1.99676500	4.49713800
272.49	2.17996000	4.69109100
275.52	2.42255300	4.86328700
278.62	2.82417700	5.04463300
281.78	3.03469300	5.10252800
285.02	3.41290900	5.18036000
288.34	3.91580500	5.15208100
291.73	4.39207300	4.86823700
295.20	4.65005100	4.47388500
298.76	4.74853300	4.14129100
302.40	4.78223700	3.88298400
306.14	4.78850800	3.68575200
309.96	4.78889200	3.53237000
313.89	4.79758400	3.41139300
317.91	4.81148600	3.31471000
322.04	4.83640700	3.23446300
326.28	4.87323600	3.16399000
330.63	4.91865600	3.10181100
335.10	4.97258500	3.04780100
339.69	5.03590200	3.00509900
344.40	5.11596800	2.97688700
349.25	5.22747200	2.97199500
354.24	5.41613100	2.99047900
359.38	5.76416900	2.97916900
364.66	6.25095100	2.69980000
370.11	6.52433300	2.07868700
375.71	6.34783700	1.55443200
381.49	6.14376500	1.04444000
387.45	5.92188200	0.84054100
393.60	5.62402200	0.67236400
399.95	5.45155400	0.56378200
406.51	5.28119800	0.51277200
413.28	5.13822800	0.45110000
420.29	5.01757900	0.40665500
427.54	4.91342400	0.37331000
435.04	4.81743700	0.34277700
442.80	4.73073900	0.31535300
450.86	4.65170500	0.28818600
459.20	4.57952400	0.26204800
467.87	4.51308300	0.23621100
476.87	4.45177000	0.21266700
486.22	4.39445400	0.19316500
495.94	4.34083700	0.17648000
506.06	4.29028100	0.16254700
516.60	4.24259000	0.14979000
527.60	4.19753100	0.13624100
539.07	4.15477600	0.12294200
551.05	4.11432400	0.11036900
563.57	4.07485000	0.09845400
576.68	4.03626200	0.08817100
590.41	4.00116400	0.07989000
604.81	3.96897100	0.07247000
619.93	3.93811400	0.06498200
635.82	3.90839400	0.05747200
652.55	3.87949300	0.05025300
670.19	3.85174200	0.04371000
688.81	3.82565100	0.03812500
708.49	3.80136900	0.03329300
729.32	3.77828300	0.02877900
751.43	3.75621900	0.02444500
774.91	3.73500800	0.02021900
799.90	3.71322000	0.01615400
826.57	3.69055100	0.01274200
855.07	3.66722400	0.01032000
885.61	3.64509200	0.00754100
918.41	3.62672900	0.00439500
953.73	3.61022400	0.00274600
991.88	3.59385200	0.00247700
1033.21	3.57864500	0.00189700
1078.13	3.56409900	0.00153200
1127.14	3.55010200	0.00185600
1180.81	3.53660300	0.00150000
1239.85	3.52289100	0.00105000
1305.11	3.50948700	0.00000000
1377.61	3.49762500	0.00000000
1458.65	3.48713200	0.00000000
1549.81	3.47677100	0.00000000
1653.14	3.46711700	0.00000000
1771.22	3.45854900	0.00099900
1907.46	3.45149800	0.00000000
2066.42	3.44638900	0.00098900
2254.28	3.44585800	0.00000000
2479.70	3.44647100	0.00000000
