; From SOPRA S.A. http://www.sopra-sa.com/indices.htm
; Filename    Symbol               Range (nm)     Description
; RINGAS24    In0.24Ga0.76As      206     2479    Indium Gallium Arsenide (relaxed, 24% In)
; lambda/nm       n         k
247.97	2.07350000	3.72110000
248.59	2.12961800	3.73693700
249.22	2.17300000	3.76330000
249.84	2.21045500	3.79346200
250.48	2.24880000	3.82070000
251.11	2.30062500	3.83078700
251.75	2.35540000	3.83950000
252.39	2.40338200	3.86323200
253.03	2.45480000	3.88590000
253.68	2.52141400	3.89369400
254.33	2.58890000	3.89620000
254.98	2.64294900	3.89973700
255.64	2.69530000	3.90030000
256.30	2.75436100	3.89495600
256.96	2.81580000	3.88680000
257.63	2.87893100	3.88012500
258.30	2.94120000	3.86840000
258.98	2.99864500	3.84266200
259.65	3.05480000	3.81450000
260.34	3.11303900	3.79605600
261.02	3.16990000	3.77670000
261.71	3.22326200	3.74833200
262.40	3.27250000	3.71550000
263.10	3.31377400	3.67912000
263.80	3.35460000	3.64200000
264.50	3.40428100	3.60893800
265.21	3.45360000	3.57490000
265.92	3.49562600	3.53486800
266.63	3.53280000	3.49360000
267.35	3.56471900	3.45457400
268.08	3.59300000	3.41660000
268.80	3.61833100	3.38087600
269.53	3.64310000	3.34370000
270.27	3.67121800	3.29981400
271.01	3.69880000	3.25510000
271.75	3.72324400	3.21430600
272.49	3.74460000	3.17560000
273.25	3.76085000	3.13916800
274.00	3.77560000	3.10370000
274.76	3.79153200	3.06811800
275.52	3.80940000	3.03190000
276.29	3.83205000	2.99378200
277.06	3.85590000	2.95490000
277.84	3.88000000	2.91607600
278.62	3.89930000	2.87700000
279.40	3.90506900	2.83801300
280.19	3.90740000	2.79800000
280.99	3.91499400	2.75565500
281.78	3.92330000	2.71190000
282.59	3.93109400	2.66626800
283.39	3.93710000	2.62160000
284.21	3.93956200	2.58093200
285.02	3.93870000	2.54320000
285.84	3.93307500	2.50930700
286.67	3.92590000	2.47640000
287.50	3.92085600	2.44107500
288.34	3.91510000	2.40590000
289.18	3.90618700	2.37193100
290.02	3.89660000	2.34030000
290.87	3.88884400	2.31330600
291.73	3.88040000	2.28850000
292.59	3.86845600	2.26407600
293.46	3.85640000	2.24040000
294.33	3.84800600	2.21723200
295.20	3.83930000	2.19460000
296.08	3.82648100	2.17212500
296.97	3.81280000	2.15080000
297.86	3.80064300	2.13195000
298.76	3.78880000	2.11420000
299.66	3.77640000	2.09616200
300.57	3.76480000	2.07920000
301.48	3.75606900	2.06544400
302.40	3.74720000	2.05120000
303.33	3.73486300	2.03097500
304.26	3.72210000	2.01230000
305.19	3.71111900	2.00340600
306.14	3.70110000	1.99670000
307.08	3.69243700	1.98600600
308.04	3.68370000	1.97530000
309.00	3.67320600	1.96738700
309.96	3.66210000	1.95960000
310.93	3.65016900	1.94940600
311.91	3.63980000	1.93920000
312.90	3.63525000	1.93070600
313.89	3.63070000	1.92340000
314.88	3.61983100	1.91753800
315.89	3.60840000	1.91250000
316.90	3.60113100	1.90781200
317.91	3.59480000	1.90330000
318.93	3.58748100	1.89837500
319.96	3.58000000	1.89380000
321.00	3.57208800	1.89063100
322.04	3.56510000	1.88740000
323.09	3.56135000	1.88220000
324.14	3.55770000	1.87740000
325.21	3.55068100	1.87575600
326.28	3.54360000	1.87420000
327.35	3.53931300	1.86915000
328.44	3.53570000	1.86490000
329.53	3.53125600	1.86620600
330.63	3.52700000	1.86810000
331.73	3.52355600	1.86620000
332.85	3.52060000	1.86350000
333.97	3.51791300	1.86145000
335.10	3.51580000	1.86030000
336.23	3.51483800	1.86138100
337.37	3.51400000	1.86290000
338.53	3.51227500	1.86300000
339.69	3.51020000	1.86320000
340.85	3.50781900	1.86492500
342.03	3.50560000	1.86660000
343.21	3.50380600	1.86640600
344.40	3.50310000	1.86650000
345.60	3.50494400	1.86920000
346.81	3.50720000	1.87220000
348.03	3.50763800	1.87338800
349.25	3.50800000	1.87450000
350.49	3.50985000	1.87694400
351.73	3.51150000	1.87960000
352.98	3.51070600	1.88157500
354.24	3.51070000	1.88360000
355.51	3.51513100	1.88595000
356.79	3.52050000	1.88910000
358.08	3.52368700	1.89426900
359.38	3.52720000	1.89950000
360.68	3.53347500	1.90283100
362.00	3.53960000	1.90550000
363.33	3.54250600	1.90770000
364.66	3.54510000	1.91060000
366.01	3.54929400	1.91621900
367.36	3.55500000	1.92220000
368.73	3.56365000	1.92633100
370.11	3.57260000	1.93020000
371.49	3.57867500	1.93498700
372.89	3.58490000	1.93970000
374.29	3.59390000	1.94315000
375.71	3.60370000	1.94710000
377.14	3.61285600	1.95402500
378.58	3.62240000	1.96060000
380.03	3.63282500	1.96287500
381.49	3.64430000	1.96520000
382.97	3.65745000	1.97153100
384.45	3.67140000	1.97910000
385.95	3.68530600	1.98701200
387.45	3.69970000	1.99360000
388.97	3.71451900	1.99522500
390.50	3.73070000	1.99690000
392.05	3.74976300	2.00381900
393.60	3.76990000	2.01180000
395.17	3.78908800	2.01828100
396.75	3.80950000	2.02360000
398.35	3.83283700	2.02636300
399.95	3.85850000	2.02920000
401.57	3.88646200	2.03572500
403.20	3.91670000	2.04160000
404.85	3.94948100	2.04331300
406.51	3.98390000	2.04200000
408.18	4.01891300	2.03740600
409.87	4.05520000	2.03020000
411.57	4.09430600	2.02143100
413.28	4.13260000	2.00970000
415.01	4.16542500	1.99359400
416.76	4.19740000	1.97420000
418.52	4.23361900	1.95163800
420.29	4.26800000	1.92740000
422.08	4.29468200	1.90291900
423.88	4.31810000	1.87850000
425.70	4.34139400	1.85496200
427.54	4.36260000	1.83220000
429.39	4.37890000	1.81020600
431.25	4.39600000	1.78950000
433.14	4.42076900	1.77132500
435.04	4.44690000	1.75350000
436.95	4.46880600	1.73367500
438.89	4.49120000	1.71360000
440.84	4.51688800	1.69531300
442.80	4.54600000	1.67560000
444.79	4.57965000	1.65225600
446.79	4.61770000	1.62430000
448.82	4.66416300	1.58983100
450.86	4.70770000	1.54940000
452.91	4.73476800	1.50318100
454.99	4.75600000	1.45040000
457.09	4.78005600	1.38816900
459.20	4.79930000	1.32300000
461.34	4.80793100	1.26163700
463.50	4.80910000	1.20050000
465.67	4.80426800	1.13611200
467.87	4.79270000	1.07490000
470.09	4.77235600	1.02395000
472.32	4.74860000	0.97780000
474.58	4.72681200	0.93294400
476.87	4.70490000	0.89060000
479.17	4.68325000	0.85048200
481.50	4.65980000	0.81360000
483.84	4.63073100	0.78150600
486.22	4.60170000	0.75230000
488.61	4.57866900	0.72430600
491.03	4.55690000	0.69840000
493.47	4.53281900	0.67513800
495.94	4.50890000	0.65380000
498.43	4.48671900	0.63425600
500.95	4.46540000	0.61530000
503.49	4.44466300	0.59486300
506.06	4.42430000	0.57540000
508.66	4.40387500	0.55926900
511.28	4.38380000	0.54470000
513.93	4.36442500	0.53058700
516.60	4.34550000	0.51730000
519.31	4.32667500	0.50496900
522.04	4.30860000	0.49320000
524.80	4.29233700	0.48153100
527.60	4.27630000	0.47030000
530.42	4.25875600	0.45976300
533.27	4.24120000	0.44970000
536.15	4.22478100	0.43986900
539.07	4.20880000	0.43060000
542.01	4.19272500	0.42236200
544.99	4.17720000	0.41450000
548.00	4.16286800	0.40624400
551.05	4.14920000	0.39840000
554.12	4.13593800	0.39192500
557.24	4.12290000	0.38560000
560.39	4.10966900	0.37813800
563.57	4.09670000	0.37070000
566.79	4.08456300	0.36426900
570.05	4.07250000	0.35810000
573.34	4.05961200	0.35160600
576.68	4.04690000	0.34530000
580.05	4.03520000	0.33954400
583.46	4.02410000	0.33420000
586.91	4.01364400	0.32935000
590.41	4.00330000	0.32470000
593.94	3.99220700	0.31991900
597.52	3.98140000	0.31520000
601.14	3.97200000	0.31058100
604.81	3.96290000	0.30620000
608.52	3.95313700	0.30231300
612.27	3.94340000	0.29860000
616.08	3.93408800	0.29485600
619.93	3.92510000	0.29100000
623.82	3.91650600	0.28670000
627.77	3.90820000	0.28250000
631.77	3.90018100	0.27908100
635.82	3.89220000	0.27570000
639.92	3.88382500	0.27160000
644.08	3.87560000	0.26750000
648.29	3.86800600	0.26389400
652.55	3.86080000	0.26070000
656.88	3.85397500	0.25810600
661.25	3.84730000	0.25580000
665.69	3.84049400	0.25378800
670.19	3.83370000	0.25130000
674.75	3.82696200	0.24692500
679.37	3.82030000	0.24260000
684.06	3.81378100	0.24033800
688.81	3.80730000	0.23850000
693.62	3.80056200	0.23589400
698.51	3.79420000	0.23320000
703.46	3.78907500	0.23078100
708.49	3.78420000	0.22840000
713.58	3.77866900	0.22589400
718.75	3.77310000	0.22340000
724.00	3.76774400	0.22133100
729.32	3.76280000	0.21870000
734.73	3.75903200	0.21393800
740.21	3.75500000	0.20920000
745.78	3.74893700	0.20662500
751.43	3.74260000	0.20470000
757.16	3.73733100	0.20256300
762.99	3.73260000	0.20040000
768.90	3.72823100	0.19797500
774.91	3.72450000	0.19570000
781.01	3.72186900	0.19424400
787.21	3.71960000	0.19260000
793.51	3.71710000	0.18986900
799.90	3.71440000	0.18640000
806.41	3.71138100	0.18206300
813.02	3.70790000	0.17740000
819.74	3.70381900	0.17278800
826.57	3.69900000	0.16860000
