;  Optical constants for Rh
; 
;   taken from:
;
;   'Handbook of Optical Constants of Solids', Ed. by Edward D. Palik,
;   Academic Press, Inc., 1985.
;   
;    Lambda (nm)            n            k
;-----------------------------------------
104.98	1.26000000	0.73000000
110.01	1.24000000	0.70700000
115.01	1.22000000	0.68200000
120.02	1.18000000	0.65500000
124.99	1.11000000	0.63800000
130.00	1.03000000	0.63800000
135.00	0.95300000	0.67500000
140.00	0.88000000	0.75000000
144.99	0.82000000	0.84300000
149.99	0.76600000	0.94000000
154.99	0.72000000	1.03000000
160.00	0.69100000	1.12000000
165.00	0.68100000	1.22000000
170.00	0.67700000	1.30000000
174.99	0.67500000	1.38000000
179.99	0.67200000	1.45000000
184.99	0.67200000	1.51000000
189.98	0.67100000	1.57000000
195.00	0.67200000	1.63000000
200.00	0.67500000	1.69000000
206.63	0.76000000	1.93000000
213.76	0.79000000	2.00000000
221.39	0.80000000	2.06000000
229.59	0.80000000	2.14000000
238.42	0.79000000	2.23000000
247.96	0.79000000	2.34000000
253.02	0.79000000	2.39000000
258.29	0.79000000	2.46000000
263.79	0.79000000	2.52000000
269.52	0.78000000	2.60000000
275.51	0.79000000	2.68000000
281.77	0.80000000	2.76000000
288.33	0.83000000	2.85000000
295.19	0.84000000	2.94000000
302.39	0.84000000	3.03000000
309.95	0.86000000	3.12000000
317.90	0.88000000	3.23000000
326.26	0.91000000	3.34000000
335.08	0.95000000	3.45000000
344.39	0.99000000	3.58000000
354.23	1.04000000	3.71000000
364.65	1.11000000	3.84000000
375.70	1.20000000	3.97000000
387.44	1.30000000	4.09000000
399.94	1.41000000	4.20000000
413.27	1.53000000	4.29000000
427.52	1.63000000	4.36000000
459.19	1.80000000	4.49000000
476.85	1.85000000	4.55000000
495.92	1.88000000	4.65000000
516.58	1.90000000	4.78000000
539.04	1.94000000	4.94000000
563.54	2.00000000	5.11000000
590.38	2.05000000	5.30000000
619.90	2.12000000	5.51000000
652.53	2.20000000	5.76000000
688.78	2.30000000	6.02000000
729.29	2.42000000	6.33000000
774.88	2.60000000	6.64000000
826.53	2.78000000	6.97000000
885.57	3.01000000	7.31000000
953.69	3.26000000	7.63000000
991.84	3.38000000	7.80000000
1033.17	3.51000000	7.94000000
1078.09	3.60000000	8.09000000
1127.09	3.67000000	8.26000000
1180.76	3.72000000	8.44000000
1239.80	3.71000000	8.67000000
1305.05	3.69000000	8.94000000
1377.56	3.62000000	9.36000000
1458.59	3.64000000	9.81000000
1549.75	3.63000000	10.30000000
1653.07	3.63000000	11.00000000
1771.14	3.67000000	11.70000000
1907.38	3.77000000	12.60000000
2066.33	3.87000000	13.50000000
2254.18	3.97000000	14.70000000
2479.60	4.20000000	16.10000000
