;  Optical constants for Si0.8Ge0.2
; 
;   taken from:
;
;   'Handbook of Optical Constants of Solids II', Ed. by Edward D. Palik,
;   Academic Press, Inc., 1991.
;   
;    Lambda (nm)            n            k
;-----------------------------------------
101.62	0.65000000	0.84000000
105.07	0.64000000	0.88000000
108.75	0.63000000	0.92000000
112.71	0.62000000	0.98000000
116.96	0.61000000	1.04000000
121.55	0.60000000	1.11000000
126.51	0.60000000	1.20000000
131.89	0.60000000	1.29000000
137.76	0.60000000	1.40000000
144.16	0.63000000	1.51000000
151.19	0.65000000	1.63000000
156.94	0.67000000	1.73000000
158.95	0.67000000	1.76000000
167.54	0.69000000	1.95000000
177.11	0.77000000	2.18000000
179.68	0.82000000	2.25000000
182.32	0.87000000	2.30000000
185.05	0.91000000	2.34000000
187.85	0.95000000	2.38000000
190.74	0.99000000	2.42000000
193.72	1.02000000	2.45000000
196.79	1.05000000	2.51000000
199.97	1.08000000	2.57000000
203.25	1.12000000	2.64000000
206.63	1.18000000	2.71000000
210.14	1.24000000	2.78000000
217.51	1.40000000	2.89000000
221.39	1.48000000	2.92000000
225.42	1.56000000	2.95000000
229.59	1.62000000	2.96000000
233.93	1.66000000	2.98000000
238.42	1.67000000	3.01000000
243.10	1.67000000	3.08000000
247.96	1.67000000	3.19000000
253.02	1.69000000	3.36000000
258.29	1.75000000	3.56000000
261.01	1.81000000	3.68000000
263.79	1.88000000	3.80000000
266.62	1.95000000	3.95000000
269.52	2.07000000	4.10000000
270.70	2.12000000	4.16000000
271.89	2.19000000	4.23000000
273.08	2.25000000	4.29000000
274.29	2.33000000	4.35000000
275.51	2.41000000	4.41000000
276.74	2.51000000	4.47000000
277.98	2.60000000	4.52000000
279.23	2.71000000	4.58000000
280.50	2.83000000	4.62000000
281.77	2.96000000	4.66000000
283.06	3.10000000	4.70000000
284.36	3.25000000	4.72000000
285.67	3.41000000	4.72000000
286.99	3.59000000	4.70000000
288.33	3.76000000	4.64000000
289.67	3.92000000	4.54000000
291.03	4.04000000	4.44000000
292.41	4.15000000	4.34000000
293.79	4.23000000	4.23000000
295.19	4.32000000	4.14000000
296.60	4.40000000	4.03000000
298.03	4.45000000	3.89000000
299.47	4.47000000	3.78000000
300.92	4.49000000	3.69000000
302.39	4.51000000	3.60000000
303.87	4.52000000	3.52000000
305.37	4.52000000	3.45000000
306.88	4.53000000	3.38000000
308.41	4.53000000	3.32000000
309.95	4.53000000	3.26000000
313.87	4.54000000	3.13000000
317.90	4.54000000	3.03000000
322.03	4.54000000	2.95000000
326.26	4.55000000	2.88000000
330.61	4.57000000	2.81000000
335.08	4.60000000	2.76000000
339.67	4.63000000	2.71000000
344.39	4.66000000	2.67000000
349.24	4.71000000	2.64000000
354.23	4.77000000	2.61000000
356.26	4.80000000	2.61000000
358.32	4.84000000	2.60000000
360.41	4.88000000	2.59000000
362.51	4.92000000	2.58000000
364.65	4.98000000	2.57000000
366.81	5.03000000	2.55000000
368.99	5.10000000	2.53000000
371.20	5.17000000	2.50000000
373.43	5.24000000	2.46000000
375.70	5.32000000	2.42000000
377.99	5.40000000	2.36000000
380.31	5.48000000	2.28000000
382.65	5.55000000	2.19000000
385.03	5.62000000	2.10000000
387.44	5.68000000	1.99000000
389.87	5.73000000	1.87000000
392.34	5.76000000	1.75000000
394.84	5.79000000	1.62000000
397.37	5.80000000	1.48000000
399.94	5.79000000	1.34000000
406.49	5.66000000	1.03000000
413.27	5.49000000	0.81000000
420.27	5.32000000	0.65000000
427.52	5.15000000	0.55000000
435.02	5.00000000	0.47000000
442.79	4.88000000	0.43000000
450.84	4.76000000	0.00000000
459.19	4.65000000	0.00000000
467.85	4.56000000	0.00000000
476.85	4.50000000	0.00000000
486.20	4.44000000	0.00000000
495.92	4.39000000	0.00000000
506.04	4.35000000	0.00000000
516.58	4.30000000	0.00000000
539.04	4.23000000	0.00000000
563.54	4.16000000	0.00000000
590.38	4.11000000	0.00000000
619.90	4.05000000	0.00000000
652.53	4.00000000	0.00000000
688.78	3.96000000	0.00000000
729.29	3.91000000	0.00000000
774.88	3.87000000	0.00000000
826.53	3.84000000	0.00000000
885.57	3.80000000	0.00000000
953.69	3.76000000	0.00000000
1033.17	3.73000000	0.00000000
1127.09	3.69000000	0.00000000
1239.80	3.65000000	0.00000000
1377.56	3.63000000	0.00000000
1549.75	3.60000000	0.00000000
1771.14	3.58000000	0.00000000
2066.33	3.56000000	0.00000000
2479.60	3.55000000	0.00000000
