; Refractive index spectrum of LPCVD Silicon Nitride
; STANDARD RECIPE: layer uniformity ~2%
; Measured at NIST with Woollam/VASE ellipsometer
; Quandou Wang, January 24, 2014
; lambda/nm      n     k
390.678 	2.086062 	0.000485 
392.268 	2.085223 	0.000476 
393.857 	2.084393 	0.000467 
395.447 	2.083574 	0.000458 
397.036 	2.082764 	0.000450 
398.626 	2.081964 	0.000441 
400.215 	2.081174 	0.000433 
401.805 	2.080393 	0.000425 
403.394 	2.079621 	0.000418 
404.984 	2.078858 	0.000410 
406.573 	2.078104 	0.000403 
408.163 	2.077359 	0.000396 
409.752 	2.076623 	0.000389 
411.342 	2.075895 	0.000382 
412.931 	2.075176 	0.000375 
414.521 	2.074464 	0.000369 
416.110 	2.073761 	0.000363 
417.700 	2.073066 	0.000357 
419.289 	2.072379 	0.000351 
420.879 	2.071700 	0.000345 
422.468 	2.071028 	0.000339 
424.058 	2.070364 	0.000334 
425.647 	2.069707 	0.000328 
427.237 	2.069057 	0.000323 
428.826 	2.068415 	0.000318 
430.415 	2.067780 	0.000313 
432.005 	2.067152 	0.000308 
433.594 	2.066531 	0.000303 
435.184 	2.065916 	0.000298 
436.773 	2.065309 	0.000294 
438.362 	2.064707 	0.000289 
439.952 	2.064113 	0.000285 
441.541 	2.063524 	0.000280 
443.131 	2.062943 	0.000276 
444.720 	2.062367 	0.000272 
446.309 	2.061797 	0.000268 
447.899 	2.061234 	0.000264 
449.488 	2.060676 	0.000260 
451.077 	2.060125 	0.000257 
452.666 	2.059579 	0.000253 
454.256 	2.059039 	0.000249 
455.845 	2.058504 	0.000246 
457.434 	2.057976 	0.000242 
459.023 	2.057452 	0.000239 
460.613 	2.056934 	0.000236 
462.202 	2.056422 	0.000232 
463.791 	2.055914 	0.000229 
465.380 	2.055412 	0.000226 
466.969 	2.054915 	0.000223 
468.558 	2.054423 	0.000220 
470.147 	2.053936 	0.000217 
471.736 	2.053454 	0.000214 
473.326 	2.052977 	0.000211 
474.915 	2.052504 	0.000209 
476.504 	2.052037 	0.000206 
478.093 	2.051574 	0.000203 
479.681 	2.051115 	0.000201 
481.270 	2.050661 	0.000198 
482.859 	2.050212 	0.000196 
484.448 	2.049767 	0.000193 
486.037 	2.049326 	0.000191 
487.626 	2.048890 	0.000188 
489.215 	2.048458 	0.000186 
490.804 	2.048030 	0.000184 
492.392 	2.047606 	0.000181 
493.981 	2.047186 	0.000179 
495.570 	2.046771 	0.000177 
497.158 	2.046359 	0.000175 
498.747 	2.045951 	0.000173 
500.336 	2.045547 	0.000171 
501.924 	2.045147 	0.000169 
503.513 	2.044751 	0.000167 
505.101 	2.044359 	0.000165 
506.690 	2.043970 	0.000163 
508.278 	2.043585 	0.000161 
509.867 	2.043203 	0.000159 
511.455 	2.042825 	0.000158 
513.044 	2.042451 	0.000156 
514.632 	2.042080 	0.000154 
516.220 	2.041713 	0.000152 
517.808 	2.041348 	0.000151 
519.397 	2.040987 	0.000149 
520.985 	2.040630 	0.000148 
522.573 	2.040276 	0.000146 
524.161 	2.039925 	0.000144 
525.749 	2.039577 	0.000143 
527.337 	2.039232 	0.000141 
528.925 	2.038891 	0.000140 
530.513 	2.038552 	0.000138 
532.101 	2.038216 	0.000137 
533.689 	2.037884 	0.000135 
535.277 	2.037555 	0.000134 
536.865 	2.037228 	0.000133 
538.453 	2.036904 	0.000131 
540.040 	2.036583 	0.000130 
541.628 	2.036265 	0.000129 
543.216 	2.035950 	0.000127 
544.803 	2.035638 	0.000126 
546.391 	2.035328 	0.000125 
547.978 	2.035021 	0.000124 
549.566 	2.034716 	0.000123 
551.153 	2.034415 	0.000121 
552.741 	2.034116 	0.000120 
554.328 	2.033819 	0.000119 
555.915 	2.033525 	0.000118 
557.502 	2.033233 	0.000117 
559.090 	2.032944 	0.000116 
560.677 	2.032658 	0.000115 
562.264 	2.032374 	0.000114 
563.851 	2.032092 	0.000112 
565.438 	2.031813 	0.000111 
567.025 	2.031536 	0.000110 
568.612 	2.031261 	0.000109 
570.199 	2.030989 	0.000108 
571.786 	2.030719 	0.000107 
573.372 	2.030451 	0.000106 
574.959 	2.030185 	0.000106 
576.546 	2.029922 	0.000105 
578.132 	2.029660 	0.000104 
579.719 	2.029401 	0.000103 
581.305 	2.029144 	0.000102 
582.892 	2.028889 	0.000101 
584.478 	2.028637 	0.000100 
586.065 	2.028386 	0.000099 
587.651 	2.028137 	0.000098 
589.237 	2.027890 	0.000098 
590.823 	2.027646 	0.000097 
592.409 	2.027403 	0.000096 
593.995 	2.027162 	0.000095 
595.581 	2.026923 	0.000094 
597.167 	2.026687 	0.000094 
598.753 	2.026452 	0.000093 
600.339 	2.026218 	0.000092 
601.925 	2.025987 	0.000091 
603.510 	2.025758 	0.000091 
605.096 	2.025530 	0.000090 
606.682 	2.025304 	0.000089 
608.267 	2.025080 	0.000088 
609.852 	2.024858 	0.000088 
611.438 	2.024637 	0.000087 
613.023 	2.024418 	0.000086 
614.608 	2.024201 	0.000086 
616.194 	2.023985 	0.000085 
617.779 	2.023772 	0.000084 
619.364 	2.023559 	0.000084 
620.949 	2.023349 	0.000083 
622.534 	2.023140 	0.000082 
624.119 	2.022932 	0.000082 
625.703 	2.022727 	0.000081 
627.288 	2.022522 	0.000081 
628.873 	2.022320 	0.000080 
630.457 	2.022119 	0.000079 
632.042 	2.021919 	0.000079 
633.626 	2.021721 	0.000078 
635.211 	2.021524 	0.000078 
636.795 	2.021329 	0.000077 
638.379 	2.021135 	0.000077 
639.963 	2.020943 	0.000076 
641.547 	2.020752 	0.000075 
643.131 	2.020563 	0.000075 
644.715 	2.020375 	0.000074 
646.299 	2.020188 	0.000074 
647.883 	2.020003 	0.000073 
649.467 	2.019819 	0.000073 
651.050 	2.019637 	0.000072 
652.634 	2.019456 	0.000072 
654.217 	2.019276 	0.000071 
655.801 	2.019097 	0.000071 
657.384 	2.018920 	0.000070 
658.968 	2.018744 	0.000070 
660.551 	2.018569 	0.000069 
662.134 	2.018396 	0.000069 
663.717 	2.018224 	0.000068 
665.300 	2.018053 	0.000068 
666.883 	2.017883 	0.000068 
668.465 	2.017715 	0.000067 
670.048 	2.017547 	0.000067 
671.631 	2.017381 	0.000066 
673.213 	2.017216 	0.000066 
674.796 	2.017052 	0.000065 
676.378 	2.016890 	0.000065 
677.960 	2.016728 	0.000065 
679.543 	2.016568 	0.000064 
681.125 	2.016409 	0.000064 
682.707 	2.016251 	0.000063 
684.289 	2.016094 	0.000063 
685.871 	2.015938 	0.000063 
687.452 	2.015783 	0.000062 
689.034 	2.015629 	0.000062 
690.616 	2.015477 	0.000061 
692.197 	2.015325 	0.000061 
693.779 	2.015174 	0.000061 
695.360 	2.015025 	0.000060 
696.941 	2.014876 	0.000060 
698.522 	2.014729 	0.000060 
700.103 	2.014582 	0.000059 
701.684 	2.014437 	0.000059 
703.265 	2.014292 	0.000058 
704.846 	2.014149 	0.000058 
706.427 	2.014006 	0.000058 
708.007 	2.013865 	0.000057 
709.588 	2.013724 	0.000057 
711.168 	2.013584 	0.000057 
712.749 	2.013446 	0.000056 
714.329 	2.013308 	0.000056 
715.909 	2.013171 	0.000056 
717.489 	2.013035 	0.000055 
719.069 	2.012900 	0.000000 
720.649 	2.012766 	0.000055 
722.229 	2.012632 	0.000055 
723.808 	2.012500 	0.000000 
725.388 	2.012368 	0.000054 
726.967 	2.012238 	0.000054 
728.547 	2.012108 	0.000053 
730.126 	2.011979 	0.000053 
731.705 	2.011851 	0.000053 
733.284 	2.011723 	0.000052 
734.863 	2.011597 	0.000052 
736.442 	2.011471 	0.000052 
738.021 	2.011346 	0.000052 
739.599 	2.011222 	0.000051 
741.178 	2.011099 	0.000051 
742.756 	2.010977 	0.000051 
744.335 	2.010855 	0.000051 
745.913 	2.010734 	0.000050 
747.491 	2.010614 	0.000050 
749.069 	2.010494 	0.000050 
750.647 	2.010376 	0.000049 
752.225 	2.010258 	0.000049 
753.803 	2.010141 	0.000049 
755.380 	2.010025 	0.000049 
756.958 	2.009909 	0.000048 
758.535 	2.009794 	0.000048 
760.112 	2.009680 	0.000048 
761.690 	2.009567 	0.000048 
763.267 	2.009454 	0.000047 
764.844 	2.009342 	0.000047 
766.420 	2.009230 	0.000047 
767.997 	2.009120 	0.000047 
769.574 	2.009010 	0.000047 
771.150 	2.008901 	0.000046 
772.727 	2.008792 	0.000046 
774.303 	2.008684 	0.000046 
775.879 	2.008577 	0.000046 
777.455 	2.008470 	0.000045 
779.031 	2.008364 	0.000045 
780.607 	2.008259 	0.000045 
782.183 	2.008154 	0.000045 
783.758 	2.008050 	0.000045 
785.334 	2.007947 	0.000044 
786.909 	2.007844 	0.000044 
788.484 	2.007742 	0.000044 
790.059 	2.007641 	0.000044 
791.634 	2.007540 	0.000044 
793.209 	2.007439 	0.000043 
794.784 	2.007340 	0.000043 
796.359 	2.007241 	0.000043 
797.933 	2.007142 	0.000043 
799.508 	2.007044 	0.000043 
801.082 	2.006947 	0.000042 
802.656 	2.006850 	0.000042 
804.230 	2.006754 	0.000042 
805.804 	2.006658 	0.000042 
807.378 	2.006563 	0.000042 
808.952 	2.006469 	0.000041 
810.525 	2.006375 	0.000041 
812.098 	2.006282 	0.000041 
813.672 	2.006189 	0.000041 
815.245 	2.006097 	0.000041 
816.818 	2.006005 	0.000040 
818.391 	2.005913 	0.000040 
819.964 	2.005823 	0.000040 
821.536 	2.005733 	0.000040 
823.109 	2.005643 	0.000040 
824.681 	2.005554 	0.000040 
826.254 	2.005466 	0.000039 
827.826 	2.005378 	0.000039 
829.398 	2.005290 	0.000039 
830.970 	2.005203 	0.000039 
832.541 	2.005116 	0.000039 
834.113 	2.005030 	0.000039 
835.684 	2.004945 	0.000038 
837.256 	2.004860 	0.000038 
838.827 	2.004775 	0.000038 
840.398 	2.004691 	0.000038 
841.969 	2.004607 	0.000038 
843.540 	2.004524 	0.000038 
845.110 	2.004441 	0.000038 
846.681 	2.004359 	0.000037 
848.251 	2.004277 	0.000037 
849.822 	2.004196 	0.000037 
851.392 	2.004115 	0.000037 
852.962 	2.004035 	0.000037 
854.532 	2.003955 	0.000037 
856.101 	2.003875 	0.000036 
857.671 	2.003796 	0.000036 
859.240 	2.003718 	0.000036 
860.810 	2.003640 	0.000036 
862.379 	2.003562 	0.000036 
863.948 	2.003484 	0.000036 
865.517 	2.003408 	0.000036 
867.086 	2.003331 	0.000035 
868.654 	2.003255 	0.000035 
870.223 	2.003180 	0.000035 
871.791 	2.003104 	0.000035 
873.359 	2.003030 	0.000035 
874.927 	2.002955 	0.000035 
876.495 	2.002881 	0.000035 
878.063 	2.002808 	0.000035 
879.630 	2.002734 	0.000034 
881.198 	2.002662 	0.000034 
882.765 	2.002589 	0.000034 
884.332 	2.002517 	0.000034 
885.899 	2.002446 	0.000034 
887.466 	2.002374 	0.000034 
889.033 	2.002304 	0.000034 
890.599 	2.002233 	0.000034 
892.166 	2.002163 	0.000033 
893.732 	2.002093 	0.000033 
895.298 	2.002024 	0.000033 
896.864 	2.001955 	0.000033 
898.430 	2.001887 	0.000033 
899.995 	2.001818 	0.000033 
