; From SOPRA S.A. http://www.sopra-sa.com/indices.htm
; Filename    Symbol               Range (nm)     Description
; RESIGE1     Ge                  163     2479    Silicon Germanium alloy (relaxed, 100% Ge)
; lambda/nm       n         k
206.64	1.02300000	2.77400000
208.38	1.06250000	2.80225000
210.14	1.10800000	2.83100000
211.94	1.15750000	2.85600000
213.77	1.20900000	2.87300000
215.63	1.26268800	2.87337500
217.52	1.31000000	2.86600000
219.44	1.34006200	2.85581200
221.40	1.36000000	2.84600000
223.40	1.37293700	2.84200000
225.43	1.38000000	2.84200000
227.50	1.38350000	2.84506200
229.60	1.38300000	2.85400000
231.75	1.37762500	2.87150000
233.93	1.37100000	2.89700000
236.16	1.36637500	2.93143800
238.43	1.36400000	2.97300000
240.75	1.36506200	3.02000000
243.11	1.37000000	3.07300000
245.52	1.37981200	3.13218700
247.97	1.39400000	3.19700000
250.48	1.41206300	3.26681300
253.03	1.43500000	3.34200000
255.64	1.46356300	3.42206300
258.30	1.49800000	3.50900000
261.02	1.53756300	3.60375000
263.80	1.58600000	3.70900000
266.63	1.64393700	3.82593700
269.53	1.72000000	3.96000000
272.49	1.80968700	4.12093700
275.52	1.95300000	4.29700000
278.62	2.19768900	4.51418800
281.78	2.51600000	4.66900000
285.02	2.93675200	4.64237500
288.34	3.33800000	4.50700000
291.73	3.58512500	4.27256300
295.20	3.74500000	4.00900000
298.76	3.83018700	3.79775100
302.40	3.86900000	3.61400000
306.14	3.89381200	3.46275100
309.96	3.90500000	3.33600000
313.89	3.91375000	3.22856300
317.91	3.92000000	3.13700000
322.04	3.92756200	3.05675000
326.28	3.93600000	2.98600000
330.63	3.94631200	2.92156200
335.10	3.95800000	2.86300000
339.69	3.97068700	2.80906200
344.40	3.98500000	2.75900000
349.25	4.00106200	2.71200000
354.24	4.02000000	2.66700000
359.38	4.04356300	2.62412500
364.66	4.07000000	2.57900000
370.11	4.10031200	2.52656200
375.71	4.12800000	2.46900000
381.49	4.14712500	2.40543700
387.45	4.15700000	2.34000000
393.60	4.15450000	2.27381300
399.95	4.14100000	2.21500000
406.51	4.11331200	2.17250000
413.28	4.08200000	2.14500000
420.29	4.05593800	2.13556300
427.54	4.03700000	2.14000000
435.04	4.03025000	2.15650000
442.80	4.03500000	2.18100000
450.86	4.05225000	2.20875000
459.20	4.08200000	2.24000000
467.87	4.12393700	2.27350000
476.87	4.18000000	2.30900000
486.22	4.24925000	2.34637500
495.94	4.34000000	2.38400000
506.06	4.45675000	2.43275000
516.60	4.61000000	2.45500000
527.60	4.83906300	2.40775000
539.07	5.06200000	2.31800000
551.05	5.17168700	2.20087500
563.57	5.28300000	2.04900000
576.68	5.53931200	1.86850000
590.41	5.74800000	1.63400000
604.81	5.71543700	1.27600000
619.93	5.58800000	0.93300000
635.82	5.44518800	0.75031300
652.55	5.29400000	0.63800000
670.19	5.17275000	0.55675000
688.81	5.06700000	0.50000000
708.49	4.97618700	0.44537500
729.32	4.89700000	0.40100000
751.43	4.82625000	0.36975000
774.91	4.76300000	0.34500000
799.90	4.70543700	0.32475000
826.57	4.65300000	0.29800000
855.07	4.60368700	0.24250000
885.61	4.56000000	0.19000000
918.41	4.52637500	0.17450000
953.73	4.49500000	0.16700000
991.88	4.45562500	0.14481300
1033.21	4.42000000	0.12300000
1078.13	4.40156300	0.11163100
1127.14	4.38500000	0.10300000
1180.81	4.35531200	0.09110000
1239.85	4.32500000	0.08090000
1305.11	4.30187500	0.08062100
1377.61	4.28500000	0.07450000
1458.65	4.28343700	0.04002200
1549.81	4.27500000	0.00567000
1653.14	4.23162500	0.00130900
1771.22	4.18000000	0.00028000
1907.46	4.13312500	0.00314700
2066.42	4.10400000	0.00000000
2254.28	4.08600000	0.00000000
2479.70	4.07400000	0.00000000
