; From SOPRA S.A. http://www.sopra-sa.com/indices.htm
; Filename    Symbol               Range (nm)     Description
; SIGE_GE     SiGe                240      840    Silicon Germanium alloy on Germanium
; lambda/nm       n         k
240.00	1.75380000	3.26580000
242.00	1.72370000	3.31790000
244.00	1.70350000	3.34310000
246.00	1.71170000	3.38160000
248.00	1.72780000	3.44700000
250.00	1.75200000	3.50530000
252.00	1.79000000	3.56430000
254.00	1.82700000	3.63700000
256.00	1.86110000	3.71030000
258.00	1.91010000	3.76570000
260.00	1.95280000	3.84980000
262.00	2.00710000	3.91240000
264.00	2.07030000	3.98860000
266.00	2.13240000	4.07820000
268.00	2.21230000	4.16800000
270.00	2.29730000	4.25830000
272.00	2.39950000	4.34250000
274.00	2.50980000	4.42730000
276.00	2.64700000	4.52180000
278.00	2.80570000	4.59600000
280.00	2.99030000	4.67510000
282.00	3.20560000	4.71880000
284.00	3.43630000	4.72150000
286.00	3.67970000	4.67880000
288.00	3.89590000	4.58450000
290.00	4.09750000	4.45180000
292.00	4.23740000	4.30420000
294.00	4.35720000	4.14040000
296.00	4.42490000	3.98990000
298.00	4.48360000	3.84480000
300.00	4.50820000	3.72060000
302.00	4.52713100	3.60533800
304.00	4.54040000	3.50170000
306.00	4.54886900	3.40908700
308.00	4.55340000	3.32690000
310.00	4.55442500	3.25521300
312.00	4.55410000	3.19140000
314.00	4.55493100	3.13295000
316.00	4.55630000	3.07960000
318.00	4.55851900	3.03012600
320.00	4.56130000	2.98490000
322.00	4.56454300	2.94472500
324.00	4.56800000	2.90710000
326.00	4.57128100	2.86921200
328.00	4.57470000	2.83280000
330.00	4.57847500	2.79858700
332.00	4.58250000	2.76680000
334.00	4.58667500	2.73843100
336.00	4.59120000	2.71190000
338.00	4.59588700	2.68580600
340.00	4.60180000	2.66060000
342.00	4.61080600	2.63610000
344.00	4.62030000	2.61280000
346.00	4.62748100	2.59141300
348.00	4.63480000	2.57110000
350.00	4.64371800	2.55128100
352.00	4.65440000	2.53190000
354.00	4.66810600	2.51266900
356.00	4.68300000	2.49370000
358.00	4.69721800	2.47526900
360.00	4.71210000	2.45660000
362.00	4.72832500	2.43680000
364.00	4.74600000	2.41650000
366.00	4.76600000	2.39633100
368.00	4.78670000	2.37540000
370.00	4.80692500	2.35328700
372.00	4.82620000	2.32920000
374.00	4.84352500	2.30178700
376.00	4.85930000	2.27230000
378.00	4.87372500	2.24074400
380.00	4.88640000	2.20950000
382.00	4.89661300	2.18172500
384.00	4.90550000	2.15510000
386.00	4.91390000	2.12837500
388.00	4.92200000	2.10150000
390.00	4.93059400	2.07339400
392.00	4.93870000	2.04590000
394.00	4.94555600	2.02034400
396.00	4.95130000	1.99720000
398.00	4.95503100	1.97809400
400.00	4.95910000	1.96090000
402.00	4.96596900	1.94362500
404.00	4.97440000	1.92750000
406.00	4.98386900	1.91344400
408.00	4.99470000	1.90040000
410.00	5.00691800	1.88771200
412.00	5.02090000	1.87510000
414.00	5.03710000	1.86196900
416.00	5.05530000	1.84860000
418.00	5.07545000	1.83505600
420.00	5.09750000	1.82140000
422.00	5.12194900	1.80511700
424.00	5.14711600	1.78679400
426.00	5.17283900	1.76639400
428.00	5.19895400	1.74387500
430.00	5.22530000	1.71920000
432.00	5.25171400	1.69232900
434.00	5.27803200	1.66322300
436.00	5.30409500	1.63184200
438.00	5.32973900	1.59814700
440.00	5.35480000	1.56210000
442.00	5.37978000	1.52366400
444.00	5.40368800	1.48279600
446.00	5.42619700	1.43945600
448.00	5.44697700	1.39360300
450.00	5.46570000	1.34520000
452.00	5.48268700	1.29207000
454.00	5.49679900	1.23684100
456.00	5.50754900	1.18000700
458.00	5.51444600	1.12206200
460.00	5.51700000	1.06350000
462.00	5.51105200	1.00410600
464.00	5.50070000	0.94526000
466.00	5.48637200	0.88762900
468.00	5.46849600	0.83188600
470.00	5.44750000	0.77870000
472.00	5.42374200	0.73190100
474.00	5.39773700	0.68821000
476.00	5.36993100	0.64750900
478.00	5.34077000	0.60967900
480.00	5.31070000	0.57460000
482.00	5.28075100	0.54228100
484.00	5.25063800	0.51244200
486.00	5.22065900	0.48493400
488.00	5.19111300	0.45960300
490.00	5.16230000	0.43630000
492.00	5.13594000	0.41492700
494.00	5.11055600	0.39526600
496.00	5.08609200	0.37715100
498.00	5.06249200	0.36041700
500.00	5.03970000	0.34490000
502.00	5.01792600	0.33026900
504.00	4.99678100	0.31656600
506.00	4.97614300	0.30367000
508.00	4.95589000	0.29145500
510.00	4.93590000	0.27980000
512.00	4.91527200	0.26780900
514.00	4.89485600	0.25632500
516.00	4.87472400	0.24541500
518.00	4.85494800	0.23515000
520.00	4.83560000	0.22560000
522.00	4.81703300	0.21726600
524.00	4.79896800	0.20967700
526.00	4.78140700	0.20279500
528.00	4.76435000	0.19658200
530.00	4.74780000	0.19100000
532.00	4.73172900	0.18633300
534.00	4.71617500	0.18213800
536.00	4.70114600	0.17829800
538.00	4.68665100	0.17469100
540.00	4.67270000	0.17120000
542.00	4.65945800	0.16740100
544.00	4.64673700	0.16355400
546.00	4.63450700	0.15961800
548.00	4.62273900	0.15554700
550.00	4.61140000	0.15130000
552.00	4.60086500	0.14657400
554.00	4.59059900	0.14164900
556.00	4.58047000	0.13654700
558.00	4.57034700	0.13129000
560.00	4.56010000	0.12590000
562.00	4.54892500	0.11981900
564.00	4.53753000	0.11379100
566.00	4.52595400	0.10798500
568.00	4.51423100	0.10256600
570.00	4.50240000	0.09770000
572.00	4.49029800	0.09462300
574.00	4.47821100	0.09216600
576.00	4.46622500	0.09022600
578.00	4.45442500	0.08870500
580.00	4.44290000	0.08750000
582.00	4.43222400	0.08622600
584.00	4.42187200	0.08513900
586.00	4.41180800	0.08420900
588.00	4.40199600	0.08340600
590.00	4.39240000	0.08270000
592.00	4.38260300	0.08186400
594.00	4.37304500	0.08111600
596.00	4.36378600	0.08047600
598.00	4.35488500	0.07996400
600.00	4.34640000	0.07960000
602.00	4.33870200	0.07975300
604.00	4.33146100	0.08000600
606.00	4.32465900	0.08029400
608.00	4.31827900	0.08054700
610.00	4.31230000	0.08070000
612.00	4.30723400	0.08039700
614.00	4.30240100	0.07993000
616.00	4.29765100	0.07930600
618.00	4.29283400	0.07852700
620.00	4.28780000	0.07760000
622.00	4.28125500	0.07653800
624.00	4.27447700	0.07533500
626.00	4.26760200	0.07399300
628.00	4.26076500	0.07251400
630.00	4.25410000	0.07090000
632.00	4.24842100	0.06886000
634.00	4.24301700	0.06676400
636.00	4.23785100	0.06468800
638.00	4.23289000	0.06270800
640.00	4.22810000	0.06090000
642.00	4.22342000	0.05983900
644.00	4.21884800	0.05897800
646.00	4.21435600	0.05826600
648.00	4.20991600	0.05765700
650.00	4.20550000	0.05710000
652.00	4.20092300	0.05652200
654.00	4.19635400	0.05590500
656.00	4.19180300	0.05520700
658.00	4.18728100	0.05438600
660.00	4.18280000	0.05340000
662.00	4.17834200	0.05195600
664.00	4.17395500	0.05032400
666.00	4.16965600	0.04852400
668.00	4.16546500	0.04657600
670.00	4.16140000	0.04450000
672.00	4.15798400	0.04226800
674.00	4.15460400	0.03996000
676.00	4.15115200	0.03760800
678.00	4.14752000	0.03524400
680.00	4.14360000	0.03290000
682.00	4.13864400	0.03040300
684.00	4.13334400	0.02804200
686.00	4.12775200	0.02589800
688.00	4.12192000	0.02405700
690.00	4.11590000	0.02260000
692.00	4.10937300	0.02223800
694.00	4.10285400	0.02227100
696.00	4.09648900	0.02262500
698.00	4.09042300	0.02322600
700.00	4.08480000	0.02400000
702.00	4.08088100	0.02478800
704.00	4.07741600	0.02562400
706.00	4.07427100	0.02645600
708.00	4.07131000	0.02723200
710.00	4.06840000	0.02790000
712.00	4.06464100	0.02805300
714.00	4.06085400	0.02808200
716.00	4.05709700	0.02802600
718.00	4.05342700	0.02791900
720.00	4.04990000	0.02780000
722.00	4.04703700	0.02806600
724.00	4.04431400	0.02830300
726.00	4.04167300	0.02845700
728.00	4.03905500	0.02847400
730.00	4.03640000	0.02830000
732.00	4.03336000	0.02737400
734.00	4.03023800	0.02627700
736.00	4.02704600	0.02508300
738.00	4.02379500	0.02386600
740.00	4.02050000	0.02270000
742.00	4.01726600	0.02201300
744.00	4.01398900	0.02143400
746.00	4.01065900	0.02095000
748.00	4.00726600	0.02054300
750.00	4.00380000	0.02020000
752.00	3.99998100	0.01981800
754.00	3.99613400	0.01949100
756.00	3.99231700	0.01922500
758.00	3.98858700	0.01902600
760.00	3.98500000	0.01890000
762.00	3.98200900	0.01871700
764.00	3.97917700	0.01865400
766.00	3.97645900	0.01875400
768.00	3.97381400	0.01905500
770.00	3.97120000	0.01960000
772.00	3.96810300	0.02093100
774.00	3.96506900	0.02246200
776.00	3.96217400	0.02410600
778.00	3.95949300	0.02578100
780.00	3.95710000	0.02740000
782.00	3.95542300	0.02872600
784.00	3.95409800	0.02986500
786.00	3.95311000	0.03077100
788.00	3.95244900	0.03139800
790.00	3.95210000	0.03170000
792.00	3.95246700	0.03116600
794.00	3.95301800	0.03032900
796.00	3.95363400	0.02925900
798.00	3.95420100	0.02802600
800.00	3.95460000	0.02670000
802.00	3.95389000	0.02558600
804.00	3.95298500	0.02445900
806.00	3.95197500	0.02332900
808.00	3.95095000	0.02220600
810.00	3.95000000	0.02110000
812.00	3.95052200	0.01993600
814.00	3.95097100	0.01883200
816.00	3.95110900	0.01782000
818.00	3.95069800	0.01693200
820.00	3.94950000	0.01620000
822.00	3.94597300	0.01564300
824.00	3.94151000	0.01531000
826.00	3.93620200	0.01523400
828.00	3.93013500	0.01545300
830.00	3.92340000	0.01600000
832.00	3.91608500	0.01691100
834.00	3.90827800	0.01822200
836.00	3.90006900	0.01996600
838.00	3.89154700	0.02218100
840.00	3.88280000	0.02490000
