; From SOPRA S.A. http://www.sopra-sa.com/indices.htm
; Filename    Symbol               Range (nm)     Description
; SIGE_SI     SiGe                240      840    Silicon Germanium alloy on Silicon
; lambda/nm       n         k
240.00	1.63780000	3.23300000
242.00	1.63740000	3.25130000
244.00	1.64050000	3.25980000
246.00	1.65770000	3.34800000
248.00	1.67610000	3.40500000
250.00	1.68750000	3.45680000
252.00	1.71720000	3.51030000
254.00	1.76780000	3.58520000
256.00	1.78250000	3.64620000
258.00	1.82590000	3.71900000
260.00	1.87050000	3.78120000
262.00	1.90530000	3.86550000
264.00	1.95440000	3.94330000
266.00	2.01890000	4.02050000
268.00	2.08800000	4.11140000
270.00	2.15470000	4.19830000
272.00	2.24810000	4.29810000
274.00	2.35630000	4.39130000
276.00	2.47810000	4.48120000
278.00	2.60830000	4.56970000
280.00	2.78190000	4.65750000
282.00	2.97510000	4.73010000
284.00	3.18690000	4.75490000
286.00	3.42590000	4.75100000
288.00	3.67340000	4.68890000
290.00	3.87990000	4.58520000
292.00	4.04450000	4.45260000
294.00	4.17080000	4.30960000
296.00	4.28050000	4.15860000
298.00	4.33260000	4.02110000
300.00	4.38420000	3.89700000
302.00	4.42391300	3.77411900
304.00	4.44750000	3.67000000
306.00	4.45976300	3.58078100
308.00	4.46550000	3.50260000
310.00	4.47136300	3.42985000
312.00	4.47660000	3.36390000
314.00	4.48293100	3.30479400
316.00	4.48960000	3.25090000
318.00	4.49616900	3.20066300
320.00	4.50340000	3.15390000
322.00	4.51256800	3.10981200
324.00	4.52170000	3.06870000
326.00	4.52863100	3.03085000
328.00	4.53520000	2.99550000
330.00	4.54251300	2.96178100
332.00	4.55060000	2.93030000
334.00	4.56065000	2.90140000
336.00	4.57030000	2.87500000
338.00	4.57613800	2.85190600
340.00	4.58250000	2.82980000
342.00	4.59415600	2.80567500
344.00	4.60640000	2.78240000
346.00	4.61449400	2.76269400
348.00	4.62330000	2.74400000
350.00	4.63711900	2.72420600
352.00	4.65290000	2.70470000
354.00	4.66910600	2.68608100
356.00	4.68550000	2.66860000
358.00	4.70070000	2.65311200
360.00	4.71660000	2.63840000
362.00	4.73480000	2.62369400
364.00	4.75480000	2.60850000
366.00	4.77699400	2.59221200
368.00	4.80030000	2.57440000
370.00	4.82367500	2.55425000
372.00	4.84740000	2.53230000
374.00	4.87175700	2.50808700
376.00	4.89570000	2.48380000
378.00	4.91783100	2.46270600
380.00	4.93950000	2.44110000
382.00	4.96218100	2.41541200
384.00	4.98410000	2.38850000
386.00	5.00363100	2.36228700
388.00	5.02180000	2.33600000
390.00	5.03900000	2.30914400
392.00	5.05550000	2.28280000
394.00	5.07142500	2.25776200
396.00	5.08760000	2.23440000
398.00	5.10511900	2.21363100
400.00	5.12330000	2.19460000
402.00	5.14121200	2.17711300
404.00	5.16070000	2.16010000
406.00	5.18362500	2.14241300
408.00	5.20900000	2.12410000
410.00	5.23656800	2.10492500
412.00	5.26600000	2.08460000
414.00	5.29675600	2.06313800
416.00	5.32920000	2.03940000
418.00	5.36346900	2.01253700
420.00	5.39970000	1.98170000
422.00	5.43577300	1.94639100
424.00	5.47127200	1.90777800
426.00	5.50581500	1.86599800
428.00	5.53901800	1.82119300
430.00	5.57050000	1.77350000
432.00	5.59987800	1.72305900
434.00	5.62676900	1.67001000
436.00	5.65079100	1.61449100
438.00	5.67156300	1.55664100
440.00	5.68870000	1.49660000
442.00	5.70042400	1.43245600
444.00	5.70809800	1.36691200
446.00	5.71169000	1.30061900
448.00	5.71116900	1.23423100
450.00	5.70650000	1.16840000
452.00	5.69616000	1.10491800
454.00	5.68198000	1.04301100
456.00	5.66430000	0.98304500
458.00	5.64346000	0.92538600
460.00	5.61980000	0.87040000
462.00	5.59330500	0.82007400
464.00	5.56475900	0.77274900
466.00	5.53459000	0.72838800
468.00	5.50322700	0.68695100
470.00	5.47110000	0.64840000
472.00	5.43962600	0.61320300
474.00	5.40799700	0.58068900
476.00	5.37639500	0.55069400
478.00	5.34500300	0.52305300
480.00	5.31400000	0.49760000
482.00	5.28401400	0.47432800
484.00	5.25467200	0.45287600
486.00	5.22604100	0.43304000
488.00	5.19819300	0.41461600
490.00	5.17120000	0.39740000
492.00	5.14554900	0.38057000
494.00	5.12078900	0.36469500
496.00	5.09688300	0.34972500
498.00	5.07379800	0.33561000
500.00	5.05150000	0.32230000
502.00	5.03021600	0.30960900
504.00	5.00958400	0.29765800
506.00	4.98950400	0.28643400
508.00	4.96987600	0.27591900
510.00	4.95060000	0.26610000
512.00	4.93089100	0.25714300
514.00	4.91150600	0.24880600
516.00	4.89251500	0.24102600
518.00	4.87398900	0.23374500
520.00	4.85600000	0.22690000
522.00	4.83924000	0.22030600
524.00	4.82300400	0.21405900
526.00	4.80720800	0.20812900
528.00	4.79176800	0.20248600
530.00	4.77660000	0.19710000
532.00	4.76093800	0.19188200
534.00	4.74555100	0.18687700
536.00	4.73052500	0.18207100
538.00	4.71594600	0.17745000
540.00	4.70190000	0.17300000
542.00	4.68928100	0.16864800
544.00	4.67716600	0.16445200
546.00	4.66544200	0.16041200
548.00	4.65399200	0.15652800
550.00	4.64270000	0.15280000
552.00	4.63071100	0.14929200
554.00	4.61883500	0.14592400
556.00	4.60714500	0.14268000
558.00	4.59570900	0.13954400
560.00	4.58460000	0.13650000
562.00	4.57461300	0.13359900
564.00	4.56491000	0.13074200
566.00	4.55538200	0.12789400
568.00	4.54591500	0.12502500
570.00	4.53640000	0.12210000
572.00	4.52586400	0.11868700
574.00	4.51527200	0.11525400
576.00	4.50472800	0.11186600
578.00	4.49433600	0.10859300
580.00	4.48420000	0.10550000
582.00	4.47502200	0.10314200
584.00	4.46615900	0.10097700
586.00	4.45756500	0.09895100
588.00	4.44919300	0.09701000
590.00	4.44100000	0.09510000
592.00	4.43285500	0.09274600
594.00	4.42481800	0.09041900
596.00	4.41686200	0.08816900
598.00	4.40896500	0.08604600
600.00	4.40110000	0.08410000
602.00	4.39291700	0.08280200
604.00	4.38479900	0.08167700
606.00	4.37680100	0.08067100
608.00	4.36898300	0.07973000
610.00	4.36140000	0.07880000
612.00	4.35480300	0.07752800
614.00	4.34838200	0.07623200
616.00	4.34201900	0.07493200
618.00	4.33559700	0.07364800
620.00	4.32900000	0.07240000
622.00	4.32097200	0.07123700
624.00	4.31282000	0.07014200
626.00	4.30471200	0.06913000
628.00	4.29681600	0.06821100
630.00	4.28930000	0.06740000
632.00	4.28326300	0.06691400
634.00	4.27770900	0.06650900
636.00	4.27257400	0.06614700
638.00	4.26779300	0.06579000
640.00	4.26330000	0.06540000
642.00	4.25912700	0.06479000
644.00	4.25508900	0.06410700
646.00	4.25109800	0.06334900
648.00	4.24706500	0.06251400
650.00	4.24290000	0.06160000
652.00	4.23778900	0.06064200
654.00	4.23255100	0.05959300
656.00	4.22727800	0.05844300
658.00	4.22206400	0.05718200
660.00	4.21700000	0.05580000
662.00	4.21297500	0.05387300
664.00	4.20908700	0.05190600
666.00	4.20523300	0.04999400
668.00	4.20130500	0.04822700
670.00	4.19720000	0.04670000
672.00	4.19214500	0.04617000
674.00	4.18686600	0.04589900
676.00	4.18142600	0.04581300
678.00	4.17588300	0.04583800
680.00	4.17030000	0.04590000
682.00	4.16467000	0.04555800
684.00	4.15913700	0.04519900
686.00	4.15377900	0.04484100
688.00	4.14867400	0.04450200
690.00	4.14390000	0.04420000
692.00	4.14011000	0.04417200
694.00	4.13666100	0.04416400
696.00	4.13348700	0.04414000
698.00	4.13052200	0.04406400
700.00	4.12770000	0.04390000
702.00	4.12495000	0.04328200
704.00	4.12221100	0.04258700
706.00	4.11941700	0.04186100
708.00	4.11650100	0.04115000
710.00	4.11340000	0.04050000
712.00	4.10931300	0.04027500
714.00	4.10509300	0.04012600
716.00	4.10085500	0.04001800
718.00	4.09671900	0.03992100
720.00	4.09280000	0.03980000
722.00	4.09010700	0.03949500
724.00	4.08764600	0.03913400
726.00	4.08531000	0.03871400
728.00	4.08299700	0.03823700
730.00	4.08060000	0.03770000
732.00	4.07733000	0.03701400
734.00	4.07393900	0.03628900
736.00	4.07049300	0.03554700
738.00	4.06705800	0.03481000
740.00	4.06370000	0.03410000
742.00	4.06085100	0.03357800
744.00	4.05812200	0.03309100
746.00	4.05548600	0.03262500
748.00	4.05292000	0.03216600
750.00	4.05040000	0.03170000
752.00	4.04768800	0.03110900
754.00	4.04502400	0.03051000
756.00	4.04243600	0.02991800
758.00	4.03995200	0.02934300
760.00	4.03760000	0.02880000
762.00	4.03592600	0.02837800
764.00	4.03431100	0.02799300
766.00	4.03265300	0.02763900
768.00	4.03084900	0.02731000
770.00	4.02880000	0.02700000
772.00	4.02545800	0.02674300
774.00	4.02190300	0.02648200
776.00	4.01826900	0.02619800
778.00	4.01468900	0.02587700
780.00	4.01130000	0.02550000
782.00	4.00906300	0.02491400
784.00	4.00707800	0.02427300
786.00	4.00527000	0.02359500
788.00	4.00356900	0.02289800
790.00	4.00190000	0.02220000
792.00	4.00009900	0.02136400
794.00	3.99820700	0.02060000
796.00	3.99617700	0.01996400
798.00	3.99395800	0.01951200
800.00	3.99150000	0.01930000
802.00	3.98789400	0.02002100
804.00	3.98416500	0.02093400
806.00	3.98047900	0.02193800
808.00	3.97700200	0.02292700
810.00	3.97390000	0.02380000
812.00	3.97309100	0.02401400
814.00	3.97255000	0.02401500
816.00	3.97200300	0.02380900
818.00	3.97117700	0.02340200
820.00	3.96980000	0.02280000
822.00	3.96538800	0.02130600
824.00	3.96043200	0.01980700
826.00	3.95521200	0.01848500
828.00	3.95000800	0.01752200
830.00	3.94510000	0.01710000
832.00	3.94076800	0.01740200
834.00	3.93729200	0.01861100
836.00	3.93495200	0.02090900
838.00	3.93402800	0.02447800
840.00	3.93480000	0.02950000
