; From SOPRA S.A. http://www.sopra-sa.com/indices.htm
; Filename    Symbol               Range (nm)     Description
; SI65GE35    Si0.65Ge0.35        240      840    Silicon Germanium alloy (65% Si)
; lambda/nm       n         k
240.00	1.57190000	3.27060000
242.00	1.57620000	3.30360000
244.00	1.60060000	3.35070000
246.00	1.61600000	3.39270000
248.00	1.63490000	3.46290000
250.00	1.65500000	3.51020000
252.00	1.67520000	3.57190000
254.00	1.70980000	3.63780000
256.00	1.73690000	3.70540000
258.00	1.76860000	3.77680000
260.00	1.80320000	3.84830000
262.00	1.85570000	3.93380000
264.00	1.91460000	4.01130000
266.00	1.96830000	4.10560000
268.00	2.02980000	4.18780000
270.00	2.12780000	4.28950000
272.00	2.21430000	4.38500000
274.00	2.32330000	4.48560000
276.00	2.44100000	4.58530000
278.00	2.59790000	4.67120000
280.00	2.77760000	4.76250000
282.00	2.98760000	4.83190000
284.00	3.20340000	4.87000000
286.00	3.46620000	4.86220000
288.00	3.69720000	4.79160000
290.00	3.91630000	4.68360000
292.00	4.09250000	4.54160000
294.00	4.23230000	4.38140000
296.00	4.33360000	4.22820000
298.00	4.39840000	4.08620000
300.00	4.44280000	3.95390000
302.00	4.47972400	3.83301900
304.00	4.50300000	3.72700000
306.00	4.51632500	3.63398100
308.00	4.52340000	3.55210000
310.00	4.52860600	3.47953700
312.00	4.53360000	3.41430000
314.00	4.54246900	3.35363700
316.00	4.55230000	3.29800000
318.00	4.56141200	3.24670100
320.00	4.57020000	3.20040000
322.00	4.57813700	3.16081200
324.00	4.58630000	3.12410000
326.00	4.59568100	3.08630600
328.00	4.60600000	3.04950000
330.00	4.61781300	3.01391900
332.00	4.62960000	2.98110000
334.00	4.63968100	2.95340600
336.00	4.64910000	2.92860000
338.00	4.65726200	2.90591900
340.00	4.66740000	2.88330000
342.00	4.68465000	2.85658100
344.00	4.70270000	2.83130000
346.00	4.71518100	2.81321900
348.00	4.72740000	2.79750000
350.00	4.74250000	2.78116200
352.00	4.76060000	2.76440000
354.00	4.78418700	2.74534400
356.00	4.80930000	2.72720000
358.00	4.83162500	2.71390600
360.00	4.85470000	2.70140000
362.00	4.88082500	2.68656300
364.00	4.90940000	2.67050000
366.00	4.94090600	2.65340000
368.00	4.97440000	2.63490000
370.00	5.00930000	2.61467500
372.00	5.04500000	2.59280000
374.00	5.08053200	2.56933100
376.00	5.11640000	2.54400000
378.00	5.15255000	2.51695600
380.00	5.18970000	2.48700000
382.00	5.22966900	2.45161200
384.00	5.26910000	2.41490000
386.00	5.30463700	2.38100000
388.00	5.33810000	2.34730000
390.00	5.36958700	2.31285600
392.00	5.40090000	2.27680000
394.00	5.43399300	2.23765600
396.00	5.46850000	2.19630000
398.00	5.50498800	2.15381200
400.00	5.54260000	2.10810000
402.00	5.58119300	2.05674400
404.00	5.61920000	2.00180000
406.00	5.65493100	1.94505700
408.00	5.68860000	1.88490000
410.00	5.72014400	1.81991900
412.00	5.74870000	1.75130000
414.00	5.77381800	1.67916300
416.00	5.79420000	1.60530000
418.00	5.80875600	1.53108700
420.00	5.81640000	1.45790000
422.00	5.81962200	1.37221900
424.00	5.81684900	1.29034600
426.00	5.80853500	1.21226300
428.00	5.79513500	1.13795300
430.00	5.77710000	1.06740000
432.00	5.75488600	1.00058700
434.00	5.72894500	0.93749800
436.00	5.69973100	0.87811500
438.00	5.66769800	0.82242100
440.00	5.63330000	0.77040000
442.00	5.59677500	0.72253800
444.00	5.55884500	0.67818900
446.00	5.52001800	0.63721100
448.00	5.48080000	0.59946200
450.00	5.44170000	0.56480000
452.00	5.40486100	0.53341100
454.00	5.36874500	0.50474200
456.00	5.33344700	0.47856600
458.00	5.29906600	0.45466100
460.00	5.26570000	0.43280000
462.00	5.23415600	0.41251900
464.00	5.20364400	0.39389400
466.00	5.17408400	0.37675900
468.00	5.14539600	0.36094900
470.00	5.11750000	0.34630000
472.00	5.08978500	0.33240400
474.00	5.06283400	0.31940000
476.00	5.03670100	0.30718400
478.00	5.01143900	0.29565200
480.00	4.98710000	0.28470000
482.00	4.96425500	0.27384300
484.00	4.94231000	0.26345400
486.00	4.92118700	0.25352200
488.00	4.90080900	0.24404100
490.00	4.88110000	0.23500000
492.00	4.86202500	0.22644600
494.00	4.84345500	0.21830100
496.00	4.82530200	0.21054300
498.00	4.80747900	0.20315000
500.00	4.78990000	0.19610000
502.00	4.77192600	0.18917500
504.00	4.75415900	0.18259500
506.00	4.73664900	0.17638900
508.00	4.71944500	0.17058200
510.00	4.70260000	0.16520000
512.00	4.68615900	0.16072200
514.00	4.67017700	0.15660900
516.00	4.65470600	0.15277500
518.00	4.63979700	0.14913400
520.00	4.62550000	0.14560000
522.00	4.61268600	0.14155400
524.00	4.60038300	0.13757500
526.00	4.58843700	0.13370900
528.00	4.57669400	0.13000200
530.00	4.56500000	0.12650000
532.00	4.55216600	0.12364400
534.00	4.53933300	0.12098800
536.00	4.52660800	0.11848000
538.00	4.51409500	0.11606800
540.00	4.50190000	0.11370000
542.00	4.49078900	0.11103900
544.00	4.48004200	0.10839000
546.00	4.46960200	0.10577000
548.00	4.45940700	0.10320100
550.00	4.44940000	0.10070000
552.00	4.43912700	0.09839600
554.00	4.42902200	0.09617200
556.00	4.41912300	0.09402000
558.00	4.40946900	0.09193200
560.00	4.40010000	0.08990000
562.00	4.39154200	0.08790300
564.00	4.38322500	0.08595000
566.00	4.37506700	0.08403400
568.00	4.36698600	0.08215300
570.00	4.35890000	0.08030000
572.00	4.35017500	0.07837800
574.00	4.34141700	0.07649900
576.00	4.33268200	0.07468100
578.00	4.32402400	0.07294200
580.00	4.31550000	0.07130000
582.00	4.30727500	0.06995700
584.00	4.29926500	0.06870200
586.00	4.29149800	0.06751000
588.00	4.28400100	0.06635100
590.00	4.27680000	0.06520000
592.00	4.27033600	0.06388200
594.00	4.26412000	0.06255300
596.00	4.25807600	0.06122300
598.00	4.25212800	0.05990200
600.00	4.24620000	0.05860000
602.00	4.23990200	0.05740200
604.00	4.23355200	0.05622300
606.00	4.22714900	0.05505300
608.00	4.22069800	0.05388200
610.00	4.21420000	0.05270000
612.00	4.20749500	0.05128100
614.00	4.20078900	0.04988600
616.00	4.19412700	0.04856200
618.00	4.18754900	0.04735100
620.00	4.18110000	0.04630000
622.00	4.17499900	0.04575400
624.00	4.16906900	0.04538100
626.00	4.16331100	0.04515100
628.00	4.15772100	0.04503400
630.00	4.15230000	0.04500000
632.00	4.14708200	0.04499800
634.00	4.14202300	0.04502300
636.00	4.13711300	0.04504900
638.00	4.13234100	0.04505000
640.00	4.12770000	0.04500000
642.00	4.12315300	0.04466600
644.00	4.11872200	0.04428300
646.00	4.11440600	0.04387700
648.00	4.11019900	0.04347400
650.00	4.10610000	0.04310000
652.00	4.10213000	0.04300600
654.00	4.09825500	0.04293900
656.00	4.09446500	0.04286900
658.00	4.09075000	0.04276600
660.00	4.08710000	0.04260000
662.00	4.08349400	0.04217600
664.00	4.07993700	0.04167200
666.00	4.07642300	0.04110000
668.00	4.07294700	0.04047200
670.00	4.06950000	0.03980000
672.00	4.06603300	0.03912800
674.00	4.06259400	0.03842800
676.00	4.05918900	0.03770400
678.00	4.05582300	0.03696000
680.00	4.05250000	0.03620000
682.00	4.04945500	0.03543400
684.00	4.04640500	0.03465900
686.00	4.04329800	0.03387700
688.00	4.04008100	0.03309000
690.00	4.03670000	0.03230000
692.00	4.03248900	0.03148500
694.00	4.02816200	0.03067800
696.00	4.02382100	0.02989000
698.00	4.01956700	0.02912700
700.00	4.01550000	0.02840000
702.00	4.01244400	0.02780600
704.00	4.00959600	0.02724300
706.00	4.00687600	0.02669700
708.00	4.00420400	0.02615400
710.00	4.00150000	0.02560000
712.00	3.99826800	0.02485000
714.00	3.99494800	0.02410500
716.00	3.99156400	0.02339500
718.00	3.98814000	0.02275000
720.00	3.98470000	0.02220000
722.00	3.98131000	0.02200700
724.00	3.97794100	0.02191000
726.00	3.97460700	0.02187800
728.00	3.97132300	0.02188500
730.00	3.96810000	0.02190000
732.00	3.96488600	0.02177000
734.00	3.96177900	0.02162300
736.00	3.95880900	0.02146100
738.00	3.95600600	0.02128600
740.00	3.95340000	0.02110000
742.00	3.95136500	0.02090300
744.00	3.94950200	0.02070200
746.00	3.94775800	0.02049800
748.00	3.94607500	0.02029700
750.00	3.94440000	0.02010000
752.00	3.94249400	0.02000100
754.00	3.94053100	0.01989000
756.00	3.93850100	0.01975000
758.00	3.93639300	0.01955900
760.00	3.93420000	0.01930000
762.00	3.93180200	0.01873500
764.00	3.92932500	0.01811800
766.00	3.92678700	0.01748200
768.00	3.92420600	0.01686500
770.00	3.92160000	0.01630000
772.00	3.91893400	0.01599300
774.00	3.91629100	0.01576600
776.00	3.91370100	0.01561400
778.00	3.91119400	0.01552700
780.00	3.90880000	0.01550000
782.00	3.90681000	0.01561800
784.00	3.90492900	0.01575700
786.00	3.90312300	0.01588700
788.00	3.90135900	0.01597800
790.00	3.89960000	0.01600000
792.00	3.89743600	0.01563700
794.00	3.89530400	0.01521400
796.00	3.89326400	0.01477400
798.00	3.89137600	0.01435500
800.00	3.88970000	0.01400000
802.00	3.88922400	0.01392800
804.00	3.88884800	0.01395600
806.00	3.88840000	0.01408000
808.00	3.88770800	0.01429600
810.00	3.88660000	0.01460000
812.00	3.88331000	0.01517700
814.00	3.87965900	0.01578600
816.00	3.87587300	0.01637800
818.00	3.87217700	0.01689900
820.00	3.86880000	0.01730000
822.00	3.86782900	0.01720900
824.00	3.86716200	0.01697400
826.00	3.86656200	0.01662600
828.00	3.86578700	0.01619100
830.00	3.86460000	0.01570000
832.00	3.86276100	0.01518100
834.00	3.86003000	0.01466200
836.00	3.85617000	0.01417400
838.00	3.85093900	0.01374300
840.00	3.84410000	0.01340000
