; From SOPRA S.A. http://www.sopra-sa.com/indices.htm
; Filename    Symbol               Range (nm)     Description
; SI20GE80    Si0.20Ge0.80        240      840    Silicon Germanium alloy (20% Si)
; lambda/nm       n         k
240.00	1.62410000	3.10850000
242.00	1.62660000	3.13750000
244.00	1.65520000	3.18910000
246.00	1.67540000	3.24790000
248.00	1.68790000	3.28990000
250.00	1.70760000	3.35290000
252.00	1.73900000	3.41270000
254.00	1.77240000	3.48100000
256.00	1.78760000	3.53920000
258.00	1.82900000	3.61310000
260.00	1.86200000	3.68010000
262.00	1.91580000	3.75950000
264.00	1.95760000	3.83310000
266.00	2.01680000	3.92040000
268.00	2.08120000	4.00080000
270.00	2.14850000	4.08740000
272.00	2.23300000	4.17900000
274.00	2.34340000	4.27820000
276.00	2.45660000	4.38480000
278.00	2.59950000	4.47670000
280.00	2.77300000	4.56360000
282.00	2.98690000	4.61900000
284.00	3.21480000	4.63200000
286.00	3.44830000	4.59560000
288.00	3.68490000	4.51090000
290.00	3.86360000	4.38520000
292.00	4.00210000	4.24850000
294.00	4.09840000	4.10660000
296.00	4.19380000	3.96280000
298.00	4.23390000	3.83580000
300.00	4.27330000	3.72190000
302.00	4.30369400	3.61141900
304.00	4.32180000	3.51460000
306.00	4.33068100	3.42980600
308.00	4.33340000	3.35540000
310.00	4.33291900	3.29046900
312.00	4.33260000	3.23120000
314.00	4.33871800	3.17215600
316.00	4.34550000	3.11730000
318.00	4.34812500	3.07001900
320.00	4.35000000	3.02660000
322.00	4.35366200	2.98407500
324.00	4.35690000	2.94360000
326.00	4.35710600	2.90507500
328.00	4.35800000	2.86930000
330.00	4.36356300	2.83785000
332.00	4.37040000	2.80830000
334.00	4.37660600	2.77783800
336.00	4.38170000	2.74920000
338.00	4.38327500	2.72518100
340.00	4.38520000	2.70280000
342.00	4.39210000	2.67951900
344.00	4.39930000	2.65680000
346.00	4.40198100	2.63560700
348.00	4.40520000	2.61490000
350.00	4.41353800	2.59358700
352.00	4.42360000	2.57280000
354.00	4.43353100	2.55360000
356.00	4.44330000	2.53510000
358.00	4.45189300	2.51661200
360.00	4.46040000	2.49860000
362.00	4.46970000	2.48176900
364.00	4.47940000	2.46470000
366.00	4.48911200	2.44603700
368.00	4.49970000	2.42630000
370.00	4.51244400	2.40578700
372.00	4.52570000	2.38380000
374.00	4.53895000	2.35871200
376.00	4.55010000	2.33360000
378.00	4.55544900	2.31211200
380.00	4.55930000	2.29090000
382.00	4.56548700	2.26723100
384.00	4.57170000	2.24290000
386.00	4.57720000	2.21873700
388.00	4.58110000	2.19490000
390.00	4.58163700	2.17210700
392.00	4.58070000	2.14950000
394.00	4.58029400	2.12573100
396.00	4.57830000	2.10300000
398.00	4.57228800	2.08308100
400.00	4.56520000	2.06590000
402.00	4.55964400	2.05241300
404.00	4.55420000	2.04130000
406.00	4.54789400	2.03156300
408.00	4.54200000	2.02320000
410.00	4.53764300	2.01585600
412.00	4.53430000	2.00960000
414.00	4.53173100	2.00424400
416.00	4.53020000	2.00020000
418.00	4.52984400	1.99773100
420.00	4.53080000	1.99710000
422.00	4.53054900	2.00021600
424.00	4.53179500	2.00302000
426.00	4.53448600	2.00555600
428.00	4.53857100	2.00786800
430.00	4.54400000	2.01000000
432.00	4.55072100	2.01199600
434.00	4.55868200	2.01390000
436.00	4.56783300	2.01575600
438.00	4.57812300	2.01760800
440.00	4.58950000	2.01950000
442.00	4.60160900	2.02206200
444.00	4.61477900	2.02460500
446.00	4.62903400	2.02702700
448.00	4.64440000	2.02922700
450.00	4.66090000	2.03110000
452.00	4.67889700	2.03199500
454.00	4.69799500	2.03249800
456.00	4.71813400	2.03264300
458.00	4.73925500	2.03246500
460.00	4.76130000	2.03200000
462.00	4.78337000	2.03249300
464.00	4.80645500	2.03246600
466.00	4.83070500	2.03165400
468.00	4.85626900	2.02978700
470.00	4.88330000	2.02660000
472.00	4.91386700	2.02134800
474.00	4.94571900	2.01436000
476.00	4.97852900	2.00548800
478.00	5.01196600	1.99458400
480.00	5.04570000	1.98150000
482.00	5.07945700	1.96500600
484.00	5.11283900	1.94630700
486.00	5.14550200	1.92552500
488.00	5.17710300	1.90278200
490.00	5.20730000	1.87820000
492.00	5.23370100	1.85079500
494.00	5.25852300	1.82207400
496.00	5.28193300	1.79243500
498.00	5.30410300	1.76227700
500.00	5.32520000	1.73200000
502.00	5.34489600	1.70445800
504.00	5.36398300	1.67698100
506.00	5.38275000	1.64935500
508.00	5.40149100	1.62136600
510.00	5.42050000	1.59280000
512.00	5.44244300	1.56421200
514.00	5.46464500	1.53442600
516.00	5.48680600	1.50303400
518.00	5.50862500	1.46962700
520.00	5.52980000	1.43380000
522.00	5.55158700	1.39232200
524.00	5.57173900	1.34831500
526.00	5.58956900	1.30207600
528.00	5.60438600	1.25390500
530.00	5.61550000	1.20410000
532.00	5.61815900	1.15104400
534.00	5.61675100	1.09743100
536.00	5.61160500	1.04403300
538.00	5.60304600	0.99163200
540.00	5.59140000	0.94100000
542.00	5.57677400	0.89625200
544.00	5.55976900	0.85399400
546.00	5.54076700	0.81417100
548.00	5.52015100	0.77672600
550.00	5.49830000	0.74160000
552.00	5.47602400	0.70883600
554.00	5.45317000	0.67825300
556.00	5.43001500	0.64977500
558.00	5.40683300	0.62331700
560.00	5.38390000	0.59880000
562.00	5.36319400	0.57666200
564.00	5.34286100	0.55617300
566.00	5.32275200	0.53712300
568.00	5.30271400	0.51930200
570.00	5.28260000	0.50250000
572.00	5.26060200	0.48556500
574.00	5.23864100	0.46946200
576.00	5.21697900	0.45421800
578.00	5.19587700	0.43985500
580.00	5.17560000	0.42640000
582.00	5.15798900	0.41452900
584.00	5.14133400	0.40345300
586.00	5.12550500	0.39303100
588.00	5.11037100	0.38312600
590.00	5.09580000	0.37360000
592.00	5.08130600	0.36363800
594.00	5.06720100	0.35394700
596.00	5.05344300	0.34455700
598.00	5.03999100	0.33549800
600.00	5.02680000	0.32680000
602.00	5.01359300	0.31875700
604.00	5.00062300	0.31107100
606.00	4.98790600	0.30370600
608.00	4.97546000	0.29662700
610.00	4.96330000	0.28980000
612.00	4.95194800	0.28310900
614.00	4.94079000	0.27661800
616.00	4.92971800	0.27031400
618.00	4.91862500	0.26417900
620.00	4.90740000	0.25820000
622.00	4.89482800	0.25207000
624.00	4.88218400	0.24613700
626.00	4.86963600	0.24045900
628.00	4.85735200	0.23509400
630.00	4.84550000	0.23010000
632.00	4.83538400	0.22613200
634.00	4.82575200	0.22250000
636.00	4.81648800	0.21911200
638.00	4.80747600	0.21587600
640.00	4.79860000	0.21270000
642.00	4.78908800	0.20899300
644.00	4.77964400	0.20528600
646.00	4.77031600	0.20161400
648.00	4.76115200	0.19800700
650.00	4.75220000	0.19450000
652.00	4.74377100	0.19129100
654.00	4.73558300	0.18820600
656.00	4.72762100	0.18523400
658.00	4.71986600	0.18236900
660.00	4.71230000	0.17960000
662.00	4.70495700	0.17675600
664.00	4.69775700	0.17403200
666.00	4.69066700	0.17146000
668.00	4.68365900	0.16907200
670.00	4.67670000	0.16690000
672.00	4.66945800	0.16538900
674.00	4.66228100	0.16405400
676.00	4.65521500	0.16282600
678.00	4.64830600	0.16163100
680.00	4.64160000	0.16040000
682.00	4.63543000	0.15868600
684.00	4.62948100	0.15688700
686.00	4.62372700	0.15502500
688.00	4.61814200	0.15312200
690.00	4.61270000	0.15120000
692.00	4.60733800	0.14943300
694.00	4.60207500	0.14765400
696.00	4.59689300	0.14585000
698.00	4.59177400	0.14400300
700.00	4.58670000	0.14210000
702.00	4.58171500	0.13998100
704.00	4.57672500	0.13781000
706.00	4.57169800	0.13561000
708.00	4.56660100	0.13339900
710.00	4.56140000	0.13120000
712.00	4.55546500	0.12902600
714.00	4.54951000	0.12690700
716.00	4.54365300	0.12486500
718.00	4.53801200	0.12292200
720.00	4.53270000	0.12110000
722.00	4.52858300	0.11970700
724.00	4.52484400	0.11841000
726.00	4.52141300	0.11715800
728.00	4.51822200	0.11590500
730.00	4.51520000	0.11460000
732.00	4.51224700	0.11301000
734.00	4.50933100	0.11131700
736.00	4.50639300	0.10951900
738.00	4.50336900	0.10761400
740.00	4.50020000	0.10560000
742.00	4.49641600	0.10331400
744.00	4.49246400	0.10095300
746.00	4.48838400	0.09855500
748.00	4.48421600	0.09615800
750.00	4.48000000	0.09380000
752.00	4.47598100	0.09173200
754.00	4.47194200	0.08972400
756.00	4.46787400	0.08776000
758.00	4.46376300	0.08582400
760.00	4.45960000	0.08390000
762.00	4.45514500	0.08182200
764.00	4.45067300	0.07976100
766.00	4.44622700	0.07773900
768.00	4.44185400	0.07577800
770.00	4.43760000	0.07390000
772.00	4.43374300	0.07228900
774.00	4.43003700	0.07076200
776.00	4.42647000	0.06930200
778.00	4.42302900	0.06788700
780.00	4.41970000	0.06650000
782.00	4.41649100	0.06508200
784.00	4.41336300	0.06366300
786.00	4.41030100	0.06223300
788.00	4.40728600	0.06078200
790.00	4.40430000	0.05930000
792.00	4.40113400	0.05779100
794.00	4.39801200	0.05623000
796.00	4.39496100	0.05460200
798.00	4.39201400	0.05289700
800.00	4.38920000	0.05110000
802.00	4.38727400	0.04879000
804.00	4.38536100	0.04646500
806.00	4.38331100	0.04421500
808.00	4.38097400	0.04213000
810.00	4.37820000	0.04030000
812.00	4.37326300	0.03964200
814.00	4.36798100	0.03921100
816.00	4.36259800	0.03888900
818.00	4.35735700	0.03855800
820.00	4.35250000	0.03810000
822.00	4.35097500	0.03674600
824.00	4.34964600	0.03519300
826.00	4.34807900	0.03348700
828.00	4.34584100	0.03167400
830.00	4.34250000	0.02980000
832.00	4.33762300	0.02791000
834.00	4.33077800	0.02604900
836.00	4.32153000	0.02426300
838.00	4.30944800	0.02259800
840.00	4.29410000	0.02110000
