; From SOPRA S.A. http://www.sopra-sa.com/indices.htm
; Filename    Symbol               Range (nm)     Description
; SI28GE72    Si0.28Ge0.74        240      840    Silicon Germanium alloy (28% Si)
; lambda/nm       n         k
240.00	1.65540000	3.14370000
242.00	1.63370000	3.17610000
244.00	1.63610000	3.22100000
246.00	1.66120000	3.27050000
248.00	1.67440000	3.33310000
250.00	1.69080000	3.38460000
252.00	1.72390000	3.45050000
254.00	1.76580000	3.51460000
256.00	1.78260000	3.57280000
258.00	1.82060000	3.63800000
260.00	1.86630000	3.71530000
262.00	1.90560000	3.79200000
264.00	1.95310000	3.86350000
266.00	2.00840000	3.94510000
268.00	2.08080000	4.03080000
270.00	2.14530000	4.11530000
272.00	2.23710000	4.21150000
274.00	2.34840000	4.30680000
276.00	2.45860000	4.39810000
278.00	2.60060000	4.48190000
280.00	2.77350000	4.57140000
282.00	2.97520000	4.63090000
284.00	3.20060000	4.65010000
286.00	3.42520000	4.62310000
288.00	3.66960000	4.54570000
290.00	3.84610000	4.43170000
292.00	3.99580000	4.29820000
294.00	4.10280000	4.15500000
296.00	4.20080000	4.00890000
298.00	4.24530000	3.88700000
300.00	4.28570000	3.76720000
302.00	4.32491900	3.65427500
304.00	4.34670000	3.55610000
306.00	4.35638100	3.47012500
308.00	4.35930000	3.39380000
310.00	4.36255600	3.32375000
312.00	4.36620000	3.25990000
314.00	4.37424900	3.20090600
316.00	4.38190000	3.14720000
318.00	4.38397500	3.09950700
320.00	4.38560000	3.05560000
322.00	4.39173700	3.01341200
324.00	4.39770000	2.97320000
326.00	4.39910600	2.93429400
328.00	4.40000000	2.89740000
330.00	4.40301900	2.86310000
332.00	4.40800000	2.83110000
334.00	4.41714400	2.80130000
336.00	4.42600000	2.77370000
338.00	4.42915000	2.74861200
340.00	4.43170000	2.72500000
342.00	4.43791900	2.70183100
344.00	4.44490000	2.67940000
346.00	4.45031300	2.65787500
348.00	4.45670000	2.63660000
350.00	4.46667500	2.61458100
352.00	4.47770000	2.59300000
354.00	4.48790600	2.57272500
356.00	4.49790000	2.55370000
358.00	4.50726800	2.53671200
360.00	4.51720000	2.52010000
362.00	4.52902500	2.50251900
364.00	4.54190000	2.48380000
366.00	4.55561900	2.46289300
368.00	4.56960000	2.44110000
370.00	4.58310000	2.41987500
372.00	4.59640000	2.39770000
374.00	4.61008100	2.37266200
376.00	4.62250000	2.34740000
378.00	4.63145000	2.32493100
380.00	4.63920000	2.30220000
382.00	4.64775700	2.27622500
384.00	4.65570000	2.24980000
386.00	4.66226200	2.22526200
388.00	4.66750000	2.20100000
390.00	4.67125000	2.17568800
392.00	4.67340000	2.15080000
394.00	4.67373700	2.12721300
396.00	4.67240000	2.10540000
398.00	4.66901900	2.08631900
400.00	4.66490000	2.06940000
402.00	4.66140000	2.05428700
404.00	4.65800000	2.04130000
406.00	4.65418800	2.03109400
408.00	4.65130000	2.02230000
410.00	4.65092500	2.01330000
412.00	4.65180000	2.00550000
414.00	4.65309300	2.00023700
416.00	4.65510000	1.99610000
418.00	4.65783100	1.99236200
420.00	4.66130000	1.98830000
422.00	4.66725800	1.98704500
424.00	4.67419700	1.98597400
426.00	4.68214700	1.98500200
428.00	4.69113900	1.98403900
430.00	4.70120000	1.98300000
432.00	4.71236200	1.98179700
434.00	4.72465300	1.98034300
436.00	4.73810300	1.97855000
438.00	4.75274200	1.97633100
440.00	4.76860000	1.97360000
442.00	4.78606100	1.97002900
444.00	4.80471000	1.96583000
446.00	4.82449000	1.96097800
448.00	4.84533900	1.95544300
450.00	4.86720000	1.94920000
452.00	4.89004100	1.94269800
454.00	4.91376900	1.93531300
456.00	4.93831500	1.92689900
458.00	4.96361400	1.91731000
460.00	4.98960000	1.90640000
462.00	5.01694200	1.89400200
464.00	5.04465200	1.87999500
466.00	5.07248300	1.86423700
468.00	5.10018300	1.84658600
470.00	5.12750000	1.82690000
472.00	5.15389400	1.80318200
474.00	5.17947900	1.77761100
476.00	5.20407700	1.75050900
478.00	5.22750900	1.72219800
480.00	5.24960000	1.69300000
482.00	5.26813200	1.66412500
484.00	5.28547600	1.63478600
486.00	5.30196400	1.60508600
488.00	5.31792800	1.57512300
490.00	5.33370000	1.54500000
492.00	5.35142300	1.51726200
494.00	5.36916500	1.48895300
496.00	5.38680600	1.45956300
498.00	5.40422500	1.42858300
500.00	5.42130000	1.39550000
502.00	5.43987600	1.35622200
504.00	5.45737600	1.31471600
506.00	5.47318800	1.27137100
508.00	5.48670000	1.22657000
510.00	5.49730000	1.18070000
512.00	5.50087800	1.13378600
514.00	5.50119500	1.08666500
516.00	5.49851300	1.03981100
518.00	5.49309300	0.99369600
520.00	5.48520000	0.94880000
522.00	5.47551300	0.90740300
524.00	5.46377200	0.86772100
526.00	5.45013500	0.82977800
528.00	5.43475800	0.79359600
530.00	5.41780000	0.75920000
532.00	5.39886700	0.72684100
534.00	5.37880600	0.69625700
536.00	5.35791000	0.66741100
538.00	5.33647700	0.64027100
540.00	5.31480000	0.61480000
542.00	5.29406800	0.59129900
544.00	5.27346000	0.56931500
546.00	5.25304800	0.54873300
548.00	5.23290400	0.52943400
550.00	5.21310000	0.51130000
552.00	5.19404700	0.49389800
554.00	5.17539400	0.47750500
556.00	5.15712600	0.46208300
558.00	5.13923200	0.44759400
560.00	5.12170000	0.43400000
562.00	5.10453400	0.42176700
564.00	5.08769900	0.41022600
566.00	5.07117700	0.39921100
568.00	5.05494900	0.38855700
570.00	5.03900000	0.37810000
572.00	5.02286500	0.36646500
574.00	5.00708500	0.35500100
576.00	4.99175100	0.34384300
578.00	4.97695800	0.33313000
580.00	4.96280000	0.32300000
582.00	4.95042200	0.31457800
584.00	4.93860300	0.30676700
586.00	4.92717300	0.29945700
588.00	4.91596100	0.29253800
590.00	4.90480000	0.28590000
592.00	4.89253600	0.27894800
594.00	4.88022800	0.27218000
596.00	4.86795200	0.26560800
598.00	4.85578400	0.25924400
600.00	4.84380000	0.25310000
602.00	4.83223600	0.24732300
604.00	4.82096800	0.24175500
606.00	4.81003200	0.23637700
608.00	4.79946400	0.23116600
610.00	4.78930000	0.22610000
612.00	4.78034700	0.22111700
614.00	4.77167700	0.21624600
616.00	4.76313400	0.21147800
618.00	4.75456100	0.20679900
620.00	4.74580000	0.20220000
622.00	4.73534800	0.19753800
624.00	4.72473200	0.19296500
626.00	4.71413200	0.18850300
628.00	4.70372800	0.18417400
630.00	4.69370000	0.18000000
632.00	4.68540500	0.17629600
634.00	4.67755300	0.17271600
636.00	4.67002700	0.16920800
638.00	4.66271400	0.16572000
640.00	4.65550000	0.16220000
642.00	4.64770900	0.15813500
644.00	4.63992800	0.15405000
646.00	4.63218300	0.15000600
648.00	4.62449800	0.14606900
650.00	4.61690000	0.14230000
652.00	4.60948400	0.13919500
654.00	4.60218800	0.13627800
656.00	4.59502000	0.13350200
658.00	4.58798800	0.13082500
660.00	4.58110000	0.12820000
662.00	4.57444400	0.12527600
664.00	4.56792800	0.12239200
666.00	4.56154000	0.11958000
668.00	4.55526800	0.11687200
670.00	4.54910000	0.11430000
672.00	4.54296000	0.11226400
674.00	4.53691600	0.11033600
676.00	4.53097200	0.10845600
678.00	4.52513200	0.10656400
680.00	4.51940000	0.10460000
682.00	4.51402000	0.10213600
684.00	4.50869600	0.09957200
686.00	4.50337200	0.09694000
688.00	4.49799200	0.09427200
690.00	4.49250000	0.09160000
692.00	4.48626400	0.08903600
694.00	4.47994800	0.08651200
696.00	4.47364000	0.08404000
698.00	4.46742800	0.08163200
700.00	4.46140000	0.07930000
702.00	4.45627700	0.07724200
704.00	4.45135600	0.07523700
706.00	4.44656700	0.07325100
708.00	4.44183800	0.07125000
710.00	4.43710000	0.06920000
712.00	4.43203200	0.06651800
714.00	4.42687600	0.06385500
716.00	4.42162400	0.06131300
718.00	4.41626800	0.05899400
720.00	4.41080000	0.05700000
722.00	4.40568900	0.05625400
724.00	4.40033100	0.05583300
726.00	4.39459800	0.05563500
728.00	4.38836300	0.05555800
730.00	4.38150000	0.05550000
732.00	4.37180700	0.05473400
734.00	4.36175000	0.05393700
736.00	4.35171800	0.05316300
738.00	4.34210500	0.05246600
740.00	4.33330000	0.05190000
742.00	4.32790300	0.05192400
744.00	4.32354600	0.05208400
746.00	4.32006600	0.05233200
748.00	4.31730500	0.05262000
750.00	4.31510000	0.05290000
752.00	4.31325000	0.05307600
754.00	4.31164500	0.05316000
756.00	4.31013500	0.05311600
758.00	4.30857000	0.05290800
760.00	4.30680000	0.05250000
762.00	4.30391200	0.05146900
764.00	4.30070800	0.05026200
766.00	4.29722800	0.04894200
768.00	4.29351200	0.04756700
770.00	4.28960000	0.04620000
772.00	4.28523400	0.04504200
774.00	4.28082700	0.04397700
776.00	4.27649300	0.04303100
778.00	4.27234600	0.04223000
780.00	4.26850000	0.04160000
782.00	4.26586700	0.04142200
784.00	4.26356600	0.04140100
786.00	4.26151000	0.04149900
788.00	4.25961700	0.04167800
790.00	4.25780000	0.04190000
792.00	4.25550500	0.04215800
794.00	4.25323400	0.04237300
796.00	4.25102100	0.04249900
798.00	4.24889900	0.04249000
800.00	4.24690000	0.04230000
802.00	4.24574500	0.04150100
804.00	4.24460600	0.04052200
806.00	4.24334600	0.03941400
808.00	4.24182300	0.03822300
810.00	4.23990000	0.03700000
812.00	4.23590100	0.03590800
814.00	4.23160600	0.03485200
816.00	4.22726200	0.03385200
818.00	4.22311100	0.03292800
820.00	4.21940000	0.03210000
822.00	4.21938700	0.03128600
824.00	4.21955000	0.03063300
826.00	4.21937800	0.03018700
828.00	4.21836500	0.02999400
830.00	4.21600000	0.03010000
832.00	4.21177500	0.03055000
834.00	4.20518200	0.03138900
836.00	4.19571100	0.03266300
838.00	4.18285300	0.03441800
840.00	4.16610000	0.03670000
