; From SOPRA S.A. http://www.sopra-sa.com/indices.htm
; Filename    Symbol               Range (nm)     Description
; STSG123     Si0.88Ge0.12        275      619    Silicon Germanium alloy (strained, 12% Ge)
; lambda/nm       n         k
275.52	2.52900000	4.83000000
277.06	2.68400000	4.89600000
278.62	2.83700000	4.96300000
280.19	2.98700000	5.03300000
281.78	3.13300000	5.10400000
283.39	3.33600000	5.07900000
285.02	3.55900000	5.03000000
286.67	3.78200000	4.98800000
288.34	4.00600000	4.95400000
290.02	4.22900000	4.92700000
291.73	4.33700000	4.78200000
293.46	4.43500000	4.62100000
295.20	4.53900000	4.45900000
296.97	4.65000000	4.29700000
298.76	4.74000000	4.15000000
300.57	4.75500000	4.04000000
302.40	4.77100000	3.92900000
304.26	4.79000000	3.81500000
306.14	4.81000000	3.69900000
308.04	4.81500000	3.62500000
309.96	4.81800000	3.55500000
311.91	4.82200000	3.48300000
313.89	4.82600000	3.41000000
315.89	4.83500000	3.35500000
317.91	4.84500000	3.30600000
319.96	4.85600000	3.25600000
322.04	4.86800000	3.20500000
324.14	4.88200000	3.16600000
326.28	4.89600000	3.13000000
328.44	4.91100000	3.09300000
330.63	4.92700000	3.05600000
332.85	4.94600000	3.02100000
335.10	4.96600000	2.98600000
337.37	4.98700000	2.95000000
339.69	5.01000000	2.92100000
342.03	5.03700000	2.89900000
344.40	5.06400000	2.87700000
346.81	5.09300000	2.85400000
349.25	5.13600000	2.83700000
351.73	5.18000000	2.81900000
354.24	5.22500000	2.80200000
356.79	5.29800000	2.78400000
359.38	5.37800000	2.76700000
362.00	5.45900000	2.75000000
364.66	5.57500000	2.70300000
367.36	5.70400000	2.64600000
370.11	5.83500000	2.59100000
372.89	5.95900000	2.46700000
375.71	6.08600000	2.32200000
378.58	6.21700000	2.18000000
381.49	6.27700000	1.95800000
384.45	6.33900000	1.72800000
387.45	6.38000000	1.50000000
390.50	6.29900000	1.28500000
393.60	6.22200000	1.06000000
396.75	6.11400000	0.88700000
399.95	5.98000000	0.75140000
403.20	5.84400000	0.61350000
406.51	5.72600000	0.55160000
409.87	5.60500000	0.48620000
413.28	5.50500000	0.44020000
416.76	5.41700000	0.40420000
420.29	5.33200000	0.36990000
423.88	5.26000000	0.34090000
427.54	5.18700000	0.31230000
431.25	5.12400000	0.29610000
435.04	5.05800000	0.27920000
438.89	5.00300000	0.26030000
442.80	4.94600000	0.24060000
446.79	4.89500000	0.22550000
450.86	4.84300000	0.21050000
454.99	4.80100000	0.19620000
459.20	4.75800000	0.18150000
463.50	4.71900000	0.17480000
467.87	4.67800000	0.16770000
472.32	4.63100000	0.15700000
476.87	4.58600000	0.14770000
481.50	4.54700000	0.14190000
486.22	4.50900000	0.13570000
491.03	4.47300000	0.12910000
495.94	4.44300000	0.12250000
500.95	4.41500000	0.11530000
506.06	4.39100000	0.10680000
511.28	4.35800000	0.10130000
516.60	4.32100000	0.09717000
522.04	4.28600000	0.09274000
527.60	4.25600000	0.08998000
533.27	4.22800000	0.08796000
539.07	4.19800000	0.08588000
544.99	4.17100000	0.08384000
551.05	4.15700000	0.08228000
557.24	4.14200000	0.08067000
563.57	4.12700000	0.07902000
570.05	4.10300000	0.07208000
576.68	4.08300000	0.06662000
583.46	4.06200000	0.06341000
590.41	4.04000000	0.06121000
597.52	4.02400000	0.05806000
604.81	4.00600000	0.05522000
612.27	3.98800000	0.05221000
619.93	3.97200000	0.04944000
