; From SOPRA S.A. http://www.sopra-sa.com/indices.htm
; Filename    Symbol               Range (nm)     Description
; STSG0       Si                  275      619    Silicon Germanium alloy (strained, 0% Ge)
; lambda/nm       n         k
275.52	2.45600000	5.08500000
277.06	2.60400000	5.16200000
278.62	2.77300000	5.23400000
280.19	2.94500000	5.29400000
281.78	3.12200000	5.34500000
283.39	3.32000000	5.38900000
285.02	3.54100000	5.42400000
286.67	3.80100000	5.43800000
288.34	4.09800000	5.39000000
290.02	4.37500000	5.26100000
291.73	4.61200000	5.06500000
293.46	4.77800000	4.85100000
295.20	4.88900000	4.63500000
296.97	4.95100000	4.43800000
298.76	4.98800000	4.26600000
300.57	5.00900000	4.11100000
302.40	5.02000000	3.97700000
304.26	5.02100000	3.86200000
306.14	5.01900000	3.75800000
308.04	5.01600000	3.66500000
309.96	5.01000000	3.58700000
311.91	5.00900000	3.50600000
313.89	5.01000000	3.43800000
315.89	5.01100000	3.39600000
317.91	5.01600000	3.34500000
319.96	5.02300000	3.30000000
322.04	5.03500000	3.25800000
324.14	5.04900000	3.21900000
326.28	5.06500000	3.18200000
328.44	5.08300000	3.14700000
330.63	5.10600000	3.11500000
332.85	5.13000000	3.08400000
335.10	5.15600000	3.05800000
337.37	5.18600000	3.03400000
339.69	5.21800000	3.01400000
342.03	5.25400000	2.99800000
344.40	5.29700000	2.98700000
346.81	5.34900000	2.98300000
349.25	5.41400000	2.98700000
351.73	5.49900000	2.99700000
354.24	5.61500000	3.01500000
356.79	5.77600000	3.02500000
359.38	5.99800000	3.00100000
362.00	6.26100000	2.90200000
364.66	6.52200000	2.70400000
367.36	6.72200000	2.37600000
370.11	6.81200000	2.01300000
372.89	6.80400000	1.64000000
375.71	6.70600000	1.31600000
378.58	6.54900000	1.06600000
381.49	6.38200000	0.87860000
384.45	6.21400000	0.73650000
387.45	6.06200000	0.63000000
390.50	5.92000000	0.54660000
393.60	5.79300000	0.48070000
396.75	5.67600000	0.42570000
399.95	5.57000000	0.38700000
403.20	5.47300000	0.34780000
406.51	5.38300000	0.32070000
409.87	5.29800000	0.29580000
413.28	5.22100000	0.26880000
416.76	5.15000000	0.25220000
420.29	5.08300000	0.23580000
423.88	5.02000000	0.21500000
427.54	4.96000000	0.20270000
431.25	4.90400000	0.19160000
435.04	4.85100000	0.18500000
438.89	4.80100000	0.17370000
442.80	4.75200000	0.16280000
446.79	4.70800000	0.14900000
450.86	4.66400000	0.14070000
454.99	4.62300000	0.13150000
459.20	4.58200000	0.13000000
463.50	4.54500000	0.13180000
467.87	4.50800000	0.12670000
472.32	4.47300000	0.12000000
476.87	4.44200000	0.09002000
481.50	4.41000000	0.09118000
486.22	4.37800000	0.08093000
491.03	4.34900000	0.07747000
495.94	4.31900000	0.07300000
500.95	4.29200000	0.07111000
506.06	4.26600000	0.06910000
511.28	4.24000000	0.06275000
516.60	4.21500000	0.05994000
522.04	4.19100000	0.05520000
527.60	4.16800000	0.04799000
533.27	4.14400000	0.04452000
539.07	4.12300000	0.04797000
544.99	4.10200000	0.04400000
551.05	4.08100000	0.03786000
557.24	4.06100000	0.03656000
563.57	4.04200000	0.03201000
570.05	4.02200000	0.03293000
576.68	4.00400000	0.02848000
583.46	3.98600000	0.02929000
590.41	3.96900000	0.02996000
597.52	3.95300000	0.02649000
604.81	3.93700000	0.02500000
612.27	3.92100000	0.02424000
619.93	3.90600000	0.02200000
