; From SOPRA S.A. http://www.sopra-sa.com/indices.htm
; Filename    Symbol               Range (nm)     Description
; STSG169     Si0.83Ge0.17        275      619    Silicon Germanium alloy (strained, 17% Ge)
; lambda/nm       n         k
275.52	2.51800000	4.80300000
277.06	2.65500000	4.88000000
278.62	2.79300000	4.95600000
280.19	2.95200000	5.01400000
281.78	3.11600000	5.06700000
283.39	3.33000000	5.09000000
285.02	3.54400000	5.10500000
286.67	3.78500000	5.04800000
288.34	4.01600000	4.98600000
290.02	4.19200000	4.84600000
291.73	4.36400000	4.70600000
293.46	4.47700000	4.54400000
295.20	4.58700000	4.38500000
296.97	4.64200000	4.23600000
298.76	4.69500000	4.09000000
300.57	4.71000000	3.96900000
302.40	4.72700000	3.85000000
304.26	4.74000000	3.75500000
306.14	4.75300000	3.66100000
308.04	4.75600000	3.57600000
309.96	4.76000000	3.49300000
311.91	4.76400000	3.43300000
313.89	4.76900000	3.37400000
315.89	4.77900000	3.32600000
317.91	4.78800000	3.27600000
319.96	4.79000000	3.22600000
322.04	4.79400000	3.17600000
324.14	4.80800000	3.13500000
326.28	4.82300000	3.09500000
328.44	4.83700000	3.06100000
330.63	4.85100000	3.02700000
332.85	4.86700000	2.99500000
335.10	4.88400000	2.96200000
337.37	4.90500000	2.93200000
339.69	4.92600000	2.90100000
342.03	4.95100000	2.87400000
344.40	4.97700000	2.84900000
346.81	5.00800000	2.82900000
349.25	5.04000000	2.81000000
351.73	5.07800000	2.79500000
354.24	5.12000000	2.78000000
356.79	5.18200000	2.75900000
359.38	5.24700000	2.73800000
362.00	5.32500000	2.70800000
364.66	5.40500000	2.67800000
367.36	5.50600000	2.63300000
370.11	5.60800000	2.58400000
372.89	5.71100000	2.49900000
375.71	5.81400000	2.41100000
378.58	5.90200000	2.27900000
381.49	5.98900000	2.14500000
384.45	6.04700000	1.99000000
387.45	6.10500000	1.83200000
390.50	6.13900000	1.65000000
393.60	6.17000000	1.46400000
396.75	6.12400000	1.25900000
399.95	6.07700000	1.05500000
403.20	5.97100000	0.90920000
406.51	5.86400000	0.76230000
409.87	5.75300000	0.67070000
413.28	5.64000000	0.57890000
416.76	5.54100000	0.53050000
420.29	5.44200000	0.48100000
423.88	5.36400000	0.44320000
427.54	5.28600000	0.40450000
431.25	5.21800000	0.37330000
435.04	5.14800000	0.34170000
438.89	5.08800000	0.31890000
442.80	5.02700000	0.29540000
446.79	4.97100000	0.27230000
450.86	4.91500000	0.24930000
454.99	4.86600000	0.23690000
459.20	4.81700000	0.22400000
463.50	4.77500000	0.21130000
467.87	4.73100000	0.19810000
472.32	4.68600000	0.18420000
476.87	4.63900000	0.16990000
481.50	4.60400000	0.15720000
486.22	4.56800000	0.14490000
491.03	4.53500000	0.14210000
495.94	4.50000000	0.13920000
500.95	4.46400000	0.13620000
506.06	4.42800000	0.13300000
511.28	4.39900000	0.12730000
516.60	4.36900000	0.12130000
522.04	4.33800000	0.11520000
527.60	4.30700000	0.10890000
533.27	4.28400000	0.10520000
539.07	4.26000000	0.10150000
544.99	4.23500000	0.09757000
551.05	4.20900000	0.09353000
557.24	4.18900000	0.08720000
563.57	4.16800000	0.08066000
570.05	4.14600000	0.07391000
576.68	4.12400000	0.06696000
583.46	4.10300000	0.06357000
590.41	4.08100000	0.06006000
597.52	4.05800000	0.05642000
604.81	4.03500000	0.05268000
612.27	4.01900000	0.05102000
619.93	4.00100000	0.04930000
