; From SOPRA S.A. http://www.sopra-sa.com/indices.htm
; Filename    Symbol               Range (nm)     Description
; STSG229     Si0.78Ge0.22        275      619    Silicon Germanium alloy (strained, 22% Ge)
; lambda/nm       n         k
275.52	2.51000000	4.66600000
277.06	2.61600000	4.74100000
278.62	2.71900000	4.81700000
280.19	2.83500000	4.87600000
281.78	3.03500000	4.84200000
283.39	3.23500000	4.81300000
285.02	3.43400000	4.79200000
286.67	3.63400000	4.77600000
288.34	3.83200000	4.76500000
290.02	4.02500000	4.75600000
291.73	4.10100000	4.62400000
293.46	4.18100000	4.49100000
295.20	4.26600000	4.35800000
296.97	4.35600000	4.22400000
298.76	4.45100000	4.09100000
300.57	4.52100000	3.97400000
302.40	4.53400000	3.88700000
304.26	4.54900000	3.79900000
306.14	4.56500000	3.70900000
308.04	4.58300000	3.61700000
309.96	4.60300000	3.52400000
311.91	4.60900000	3.47000000
313.89	4.61600000	3.41600000
315.89	4.62400000	3.36100000
317.91	4.63300000	3.30400000
319.96	4.64200000	3.24700000
322.04	4.65200000	3.21000000
324.14	4.66400000	3.17300000
326.28	4.67500000	3.13500000
328.44	4.68700000	3.09600000
330.63	4.70100000	3.06100000
332.85	4.71900000	3.03300000
335.10	4.73800000	3.00600000
337.37	4.75700000	2.97800000
339.69	4.77600000	2.95000000
342.03	4.80100000	2.93000000
344.40	4.82800000	2.91100000
346.81	4.85400000	2.89200000
349.25	4.88200000	2.87200000
351.73	4.92100000	2.85400000
354.24	4.96600000	2.83600000
356.79	5.01200000	2.81800000
359.38	5.05800000	2.80100000
362.00	5.12500000	2.76800000
364.66	5.19900000	2.73200000
367.36	5.27300000	2.69600000
370.11	5.34900000	2.65900000
372.89	5.43100000	2.58400000
375.71	5.51500000	2.50900000
378.58	5.60100000	2.43600000
381.49	5.66800000	2.34500000
384.45	5.72100000	2.23900000
387.45	5.77600000	2.13200000
390.50	5.83400000	2.02100000
393.60	5.89400000	1.89000000
396.75	5.95800000	1.75900000
399.95	6.02600000	1.62800000
403.20	6.00100000	1.44700000
406.51	5.98100000	1.26000000
409.87	5.96600000	1.06800000
413.28	5.87000000	0.95010000
416.76	5.77100000	0.82800000
420.29	5.67100000	0.70590000
423.88	5.57700000	0.64170000
427.54	5.48000000	0.57420000
431.25	5.39000000	0.51520000
435.04	5.31400000	0.47630000
438.89	5.23700000	0.43570000
442.80	5.17000000	0.40390000
446.79	5.10600000	0.37480000
450.86	5.04400000	0.34730000
454.99	4.99200000	0.32880000
459.20	4.93800000	0.30960000
463.50	4.88900000	0.28660000
467.87	4.83900000	0.26210000
472.32	4.79700000	0.24190000
476.87	4.76200000	0.22570000
481.50	4.72300000	0.20980000
486.22	4.67900000	0.19480000
491.03	4.63500000	0.18080000
495.94	4.59500000	0.17130000
500.95	4.55500000	0.16180000
506.06	4.52100000	0.15310000
511.28	4.48700000	0.14420000
516.60	4.45600000	0.13500000
522.04	4.42500000	0.12570000
527.60	4.39600000	0.11610000
533.27	4.36600000	0.11110000
539.07	4.33300000	0.10940000
544.99	4.30500000	0.10240000
551.05	4.27800000	0.09481000
557.24	4.25300000	0.08965000
563.57	4.22900000	0.08447000
570.05	4.20400000	0.07923000
576.68	4.18000000	0.07437000
583.46	4.15600000	0.07146000
590.41	4.13300000	0.07032000
597.52	4.11300000	0.06712000
604.81	4.09100000	0.06442000
612.27	4.06900000	0.06174000
619.93	4.05000000	0.05855000
