;  Optical constants for Ta
; 
;   taken from:
;
;   'Handbook of Optical Constants of Solids II', Ed. by Edward D. Palik,
;   Academic Press, Inc., 1991.
;   
;    Lambda (nm)            n            k
;-----------------------------------------
101.62	1.00000000	1.29000000
103.32	1.02000000	1.31000000
105.07	1.05000000	1.32000000
106.88	1.07000000	1.33000000
108.75	1.09000000	1.34000000
110.70	1.11000000	1.35000000
112.71	1.13000000	1.35000000
114.80	1.15000000	1.36000000
116.96	1.16000000	1.36000000
119.21	1.18000000	1.37000000
121.55	1.19000000	1.37000000
123.98	1.20000000	1.37000000
126.51	1.21000000	1.37000000
129.15	1.21000000	1.38000000
131.89	1.21000000	1.38000000
134.76	1.21000000	1.38000000
137.76	1.19000000	1.40000000
140.89	1.17000000	1.41000000
144.16	1.14000000	1.45000000
147.60	1.13000000	1.50000000
151.19	1.12000000	1.55000000
154.97	1.11000000	1.61000000
158.95	1.11000000	1.68000000
163.13	1.12000000	1.75000000
167.54	1.13000000	1.82000000
172.19	1.15000000	1.91000000
177.11	1.18000000	2.01000000
182.32	1.23000000	2.11000000
187.85	1.29000000	2.22000000
193.72	1.37000000	2.33000000
199.97	1.48000000	2.45000000
206.63	1.63000000	2.56000000
213.76	1.83000000	2.63000000
221.39	2.06000000	2.67000000
229.59	2.31000000	2.61000000
238.42	2.52000000	2.44000000
247.96	2.58000000	2.20000000
258.29	2.53000000	2.06000000
269.52	2.45000000	2.06000000
281.77	2.39000000	2.01000000
295.19	2.35000000	2.06000000
309.95	2.36000000	2.14000000
326.26	2.40000000	2.22000000
344.39	2.49000000	2.30000000
364.65	2.61000000	2.33000000
387.44	2.73000000	2.31000000
413.27	2.81000000	2.24000000
427.52	2.84000000	2.20000000
442.79	2.85000000	2.14000000
459.19	2.84000000	2.08000000
476.85	2.80000000	2.02000000
495.92	2.75000000	1.98000000
516.58	2.68000000	1.92000000
539.04	2.56000000	1.86000000
563.54	2.36000000	1.81000000
590.38	2.10000000	1.84000000
619.90	1.83000000	1.99000000
652.53	1.57000000	2.24000000
688.78	1.35000000	2.60000000
729.29	1.24000000	2.95000000
774.88	1.15000000	3.33000000
826.53	1.09000000	3.73000000
885.57	1.04000000	4.15000000
953.69	1.00000000	4.62000000
1033.17	0.98000000	5.14000000
1127.09	0.93000000	5.75000000
1239.80	0.89000000	6.47000000
1265.10	0.88000000	6.64000000
1318.94	0.86000000	6.99000000
1377.56	0.84000000	7.38000000
1441.63	0.85000000	7.81000000
1511.95	0.86000000	8.27000000
1589.49	0.89000000	8.77000000
1675.41	0.92000000	9.32000000
1771.14	0.96000000	9.92000000
1878.48	1.00000000	10.60000000
1999.68	1.06000000	11.40000000
2137.59	1.15000000	12.20000000
2295.93	1.25000000	13.10000000
2479.60	1.37000000	14.30000000
