; From SOPRA S.A. http://www.sopra-sa.com/indices.htm
; Filename    Symbol               Range (nm)     Description
; ZNCDTE0     ZnTe                229     1127    Zinc Cadmium Telluride (0% Cd)
; lambda/nm       n         k
229.60	2.32976700	2.87615600
230.03	2.35396800	2.87480400
230.46	2.37833800	2.87272200
230.88	2.40284300	2.86988500
231.32	2.42743900	2.86627700
231.75	2.45209200	2.86187800
232.18	2.47675300	2.85667500
232.62	2.50138000	2.85065500
233.05	2.52592400	2.84381200
233.49	2.55033900	2.83613800
233.93	2.57457100	2.82763600
234.38	2.59857500	2.81830500
234.82	2.62229500	2.80815500
235.27	2.64552000	2.79744500
235.71	2.66852200	2.78569300
236.16	2.69109300	2.77316600
236.61	2.71318100	2.75989000
237.07	2.73474200	2.74588900
237.52	2.75573100	2.73119800
237.98	2.77610500	2.71585000
238.43	2.79582500	2.69988600
238.89	2.81485700	2.68334600
239.35	2.83316700	2.66627500
239.82	2.85072700	2.64871900
240.28	2.86751200	2.63072900
240.75	2.88350200	2.61235300
241.22	2.89868200	2.59364300
241.69	2.91303800	2.57465200
242.16	2.92656400	2.55543000
242.63	2.93925500	2.53603100
243.11	2.95111300	2.51650500
243.59	2.96214200	2.49690400
244.07	2.97235000	2.47727400
244.55	2.98174900	2.45766500
245.03	2.99035300	2.43812100
245.52	2.99817900	2.41868700
246.00	3.00525000	2.39940100
246.49	3.01158600	2.38030500
246.98	3.01721300	2.36143000
247.48	3.02215600	2.34281400
247.97	3.02644500	2.32448400
248.47	3.03010700	2.30647000
248.97	3.03317300	2.28879500
249.47	3.03567200	2.27148300
249.97	3.03763600	2.25455300
250.48	3.03909600	2.23802200
250.98	3.04008200	2.22190400
251.49	3.04062500	2.20621300
252.00	3.04075500	2.19095900
252.52	3.04050200	2.17615100
253.03	3.03989500	2.16179400
253.55	3.03896200	2.14789300
254.07	3.03773100	2.13445200
254.59	3.03622900	2.12147100
255.11	3.03448100	2.10895300
255.64	3.03251100	2.09689500
256.17	3.03034400	2.08529600
256.70	3.02800200	2.07415100
257.23	3.02550700	2.06346000
257.77	3.02287900	2.05321400
258.30	3.02013800	2.04341200
258.84	3.01730100	2.03404600
259.38	3.01438800	2.02511100
259.93	3.01141300	2.01660000
260.47	3.00839400	2.00850700
261.02	3.00534400	2.00082400
261.57	3.00227800	1.99354700
262.13	2.99920900	1.98666600
262.68	2.99614800	1.98017500
263.24	2.99310800	1.97406800
263.80	2.99010000	1.96833800
264.36	2.98713300	1.96297800
264.93	2.98421700	1.95798300
265.49	2.98136200	1.95334500
266.06	2.97857700	1.94906100
266.63	2.97586900	1.94512300
267.21	2.97324600	1.94152700
267.79	2.97071600	1.93827000
268.37	2.96828700	1.93534600
268.95	2.96596400	1.93275300
269.53	2.96375600	1.93048600
270.12	2.96166900	1.92854500
270.71	2.95971000	1.92692700
271.30	2.95788600	1.92563000
271.90	2.95620300	1.92465500
272.49	2.95467000	1.92400100
273.10	2.95329400	1.92367000
273.70	2.95208300	1.92366300
274.30	2.95104600	1.92398300
274.91	2.95019100	1.92463200
275.52	2.94953000	1.92561700
276.14	2.94907300	1.92694200
276.75	2.94883300	1.92861300
277.37	2.94882500	1.93063800
277.99	2.94906400	1.93302500
278.62	2.94956700	1.93578500
279.25	2.95035500	1.93892800
279.88	2.95145200	1.94246600
280.51	2.95288600	1.94641400
281.15	2.95468600	1.95078500
281.78	2.95689100	1.95559500
282.43	2.95954300	1.96085900
283.07	2.96269300	1.96659500
283.72	2.96640200	1.97281500
284.37	2.97074000	1.97953300
285.02	2.97579100	1.98675500
285.68	2.98211100	1.99518700
286.34	2.98893300	2.00337100
287.00	2.99680100	2.01201100
287.67	3.00529100	2.02045200
288.34	3.01565800	2.02985600
289.01	3.02752600	2.03946500
289.69	3.04104900	2.04911600
290.36	3.05637500	2.05860200
291.05	3.07361800	2.06766500
291.73	3.09286200	2.07600300
292.42	3.11413000	2.08326700
293.11	3.13737900	2.08908000
293.80	3.16248100	2.09304500
294.50	3.18921800	2.09477300
295.20	3.21727000	2.09390100
295.91	3.24623100	2.09012400
296.62	3.27560800	2.08322100
297.33	3.30485400	2.07307900
298.04	3.33339100	2.05971000
298.76	3.36064800	2.04325800
299.48	3.38610000	2.02399000
300.21	3.40929400	2.00228900
300.93	3.42988300	1.97861200
301.67	3.44763200	1.95347400
302.40	3.46243000	1.92740100
303.14	3.47385100	1.90157200
303.89	3.48284000	1.87515200
304.63	3.48915500	1.84920100
305.38	3.49302900	1.82406400
306.14	3.49473000	1.80001700
306.89	3.49454200	1.77726400
307.66	3.49275100	1.75594500
308.42	3.48963000	1.73614800
309.19	3.48543500	1.71791500
309.96	3.48039800	1.70125100
310.74	3.47472500	1.68613700
311.52	3.46859600	1.67253200
312.31	3.46216800	1.66038300
313.09	3.45557100	1.64963100
313.89	3.44891700	1.64021300
314.68	3.44229900	1.63206600
315.48	3.43579100	1.62513200
316.29	3.42945800	1.61935700
317.10	3.42335100	1.61469600
317.91	3.41751200	1.61110900
318.73	3.41197900	1.60856900
319.55	3.40678500	1.60705700
320.38	3.40196300	1.60656800
321.21	3.39754700	1.60710600
322.04	3.39357700	1.60868900
322.88	3.39010200	1.61134600
323.72	3.38718300	1.61512000
324.57	3.38490000	1.62006200
325.42	3.38335800	1.62622900
326.28	3.38268800	1.63368600
327.14	3.38305600	1.64248900
328.00	3.38466900	1.65268900
328.87	3.38777200	1.66431000
329.75	3.39265800	1.67734200
330.63	3.39965600	1.69172500
331.51	3.40913200	1.70733300
332.40	3.42146900	1.72395600
333.29	3.43705600	1.74128700
334.19	3.45625800	1.75891500
335.10	3.47939200	1.77631600
336.00	3.50669200	1.79286200
336.92	3.53828000	1.80782800
337.83	3.57412900	1.82042300
338.76	3.61404300	1.82981600
339.69	3.65763900	1.83518600
340.62	3.70433900	1.83576700
341.56	3.75337900	1.83090200
342.50	3.80384600	1.82009400
343.45	3.85470400	1.80305100
344.40	3.90486200	1.77971300
345.36	3.95324000	1.75026100
346.33	3.99882200	1.71511100
347.30	4.04072800	1.67488300
348.27	4.07824700	1.63035200
349.25	4.11087700	1.58239400
350.24	4.13832300	1.53192700
351.23	4.16049100	1.47985800
352.23	4.17746500	1.42703200
353.23	4.18947300	1.37420400
354.24	4.19685000	1.32202000
355.26	4.20000200	1.27100600
356.28	4.19937600	1.22157200
357.31	4.19542900	1.17401600
358.34	4.18861500	1.12854400
359.38	4.17936100	1.08527800
360.42	4.16739700	1.04412500
361.47	4.15443000	1.00539100
362.53	4.14010000	0.96888500
363.59	4.12469000	0.93453900
364.66	4.10844300	0.90226500
365.74	4.09156800	0.87196100
366.82	4.07424300	0.84351700
367.91	4.05661700	0.81682100
369.00	4.03881500	0.79175800
370.11	4.02067100	0.76822100
371.21	4.00245100	0.74621100
372.33	3.98463200	0.72540200
373.45	3.96681200	0.70585200
374.58	3.94926300	0.68738500
375.71	3.93189500	0.66996000
376.85	3.91471800	0.65350000
378.00	3.89773300	0.63794300
379.16	3.88092300	0.62323800
380.32	3.86425600	0.60935900
381.49	3.84768300	0.59631900
382.67	3.83113900	0.58420400
383.86	3.81457800	0.57325400
385.05	3.79813400	0.56400900
386.25	3.78275400	0.55737900
387.45	3.77155300	0.55320000
388.67	3.76690500	0.54542700
389.89	3.76015800	0.52914100
391.12	3.74623200	0.51277900
392.36	3.72994800	0.50025100
393.60	3.71393300	0.49038700
394.86	3.69870700	0.48204800
396.12	3.68425200	0.47463800
397.39	3.67046500	0.46785800
398.67	3.65725400	0.46154700
399.95	3.64454500	0.45561100
401.25	3.63228500	0.44999200
402.55	3.62043200	0.44464700
403.86	3.60895200	0.43954500
405.18	3.59782000	0.43466400
406.51	3.58689500	0.42998200
407.85	3.57640500	0.42548600
409.19	3.56584600	0.42115900
410.55	3.55594600	0.41699300
411.91	3.54631100	0.41297100
413.28	3.53693100	0.40908500
414.67	3.52779700	0.40532400
416.06	3.51889900	0.40168100
417.46	3.51023200	0.39814700
418.87	3.50178600	0.39471400
420.29	3.49355500	0.39137700
421.72	3.48553300	0.38812700
423.16	3.47771500	0.38496000
424.61	3.47009400	0.38186800
426.07	3.46266500	0.37884700
427.54	3.45542300	0.37589000
429.01	3.44836300	0.37299400
430.50	3.44148000	0.37015300
432.00	3.43477200	0.36736300
433.51	3.42823200	0.36461900
435.04	3.42185700	0.36191600
436.57	3.41564400	0.35925200
438.11	3.40958900	0.35662100
439.66	3.40368800	0.35401900
441.23	3.39793800	0.35144400
442.80	3.39233700	0.34889100
444.39	3.38687900	0.34635700
445.99	3.38156400	0.34383900
447.60	3.37638800	0.34133200
449.22	3.37134800	0.33883300
450.86	3.36644100	0.33634000
452.50	3.36166500	0.33384800
454.16	3.35701800	0.33135500
455.83	3.35249600	0.32885600
457.51	3.34809900	0.32634900
459.20	3.34382200	0.32383100
460.91	3.33966500	0.32129700
462.63	3.33562400	0.31874500
464.36	3.33169800	0.31617100
466.11	3.32788400	0.31357100
467.87	3.32418100	0.31094200
469.64	3.32058600	0.30828000
471.43	3.31709800	0.30558200
473.23	3.31371300	0.30284300
475.04	3.31043000	0.30005900
476.87	3.30724700	0.29722700
478.71	3.30416100	0.29434100
480.56	3.30074100	0.29146400
482.43	3.29782800	0.28846100
484.32	3.29500500	0.28539000
486.22	3.29226900	0.28224600
488.13	3.28946800	0.27904700
490.06	3.28689000	0.27574200
492.00	3.28438900	0.27234500
493.96	3.28196000	0.26885000
495.94	3.27960100	0.26525000
497.93	3.27730400	0.26153700
499.94	3.27506600	0.25770300
501.96	3.27288100	0.25373700
504.00	3.27073900	0.24963000
506.06	3.26863300	0.24537000
508.14	3.26655300	0.24094600
510.23	3.26448500	0.23634400
512.34	3.26241500	0.23155100
514.46	3.26032200	0.22655000
516.60	3.25818300	0.22132500
518.77	3.25596600	0.21585900
520.95	3.25363100	0.21013400
523.14	3.25112200	0.20413400
525.36	3.24836600	0.19785100
527.60	3.24526000	0.19128700
529.85	3.24166100	0.18447600
532.13	3.23736600	0.17751600
534.42	3.23209800	0.17065700
536.73	3.22553100	0.16449100
539.07	3.21758500	0.16036800
541.42	3.20951800	0.16153900
543.79	3.20922300	0.16781100
546.19	3.22321400	0.16669800
548.61	3.23289800	0.14549500
551.05	3.22502900	0.12245700
553.51	3.21109400	0.10790900
555.99	3.19697300	0.09910400
558.49	3.18407300	0.09343100
561.02	3.17244000	0.08947600
563.57	3.16186800	0.08652200
566.14	3.15215200	0.08418700
568.74	3.14312800	0.08226000
571.36	3.13467100	0.08061200
574.01	3.12668600	0.07916500
576.68	3.11910000	0.07786700
579.37	3.11185700	0.07668300
582.09	3.10491200	0.07558900
584.84	3.09823000	0.07456700
587.61	3.09178200	0.07360400
590.41	3.08554300	0.07269000
593.23	3.07949400	0.07181800
596.08	3.07361700	0.07098100
598.96	3.06789900	0.07017600
601.87	3.06232800	0.06939900
604.81	3.05689200	0.06864500
607.77	3.05158200	0.06791400
610.76	3.04639000	0.06720300
613.79	3.04130900	0.06650900
616.84	3.03633200	0.06583200
619.93	3.03145500	0.06517000
623.04	3.02652200	0.06451600
626.19	3.02183100	0.06388100
629.37	3.01722500	0.06326000
632.58	3.01269800	0.06264900
635.82	3.00780600	0.06203200
639.10	3.00344300	0.06144400
642.41	2.99914900	0.06086600
645.76	2.99492300	0.06029600
649.14	2.99076200	0.05973600
652.55	2.98666400	0.05918400
656.01	2.98262600	0.05864000
659.50	2.97864600	0.05810300
663.02	2.97472400	0.05757500
666.59	2.97085600	0.05705300
670.19	2.96704100	0.05653800
673.83	2.96327800	0.05603000
677.51	2.95956500	0.05552800
681.24	2.95590100	0.05503300
685.00	2.95228500	0.05454300
688.81	2.94871500	0.05406000
692.65	2.94519000	0.05358200
696.55	2.94171000	0.05311000
700.48	2.93827200	0.05264300
704.46	2.93487600	0.05218100
708.49	2.93152200	0.05172500
712.56	2.92820800	0.05127300
716.68	2.92493300	0.05082700
720.84	2.92169600	0.05038500
725.06	2.91849700	0.04994800
729.32	2.91533500	0.04951500
733.64	2.91221000	0.04908700
738.01	2.90911900	0.04866300
742.43	2.90606400	0.04824300
746.90	2.90304200	0.04782800
751.43	2.89967400	0.04739200
756.01	2.89672000	0.04698500
760.65	2.89379900	0.04658100
765.34	2.89091000	0.04618200
770.09	2.88805200	0.04578600
774.91	2.88522400	0.04539400
779.78	2.88242700	0.04500500
784.72	2.87966000	0.04462000
789.71	2.87692200	0.04423900
794.78	2.87421300	0.04386100
799.90	2.87153200	0.04348600
805.10	2.86887900	0.04311400
810.36	2.86625300	0.04274600
815.69	2.86365500	0.04238100
821.09	2.86108400	0.04201900
826.57	2.85853800	0.04166000
832.12	2.85601900	0.04130400
837.74	2.85352600	0.04095100
843.44	2.85105800	0.04060000
849.21	2.84861400	0.04025300
855.07	2.84619600	0.03990800
861.01	2.84380100	0.03956700
867.03	2.84143100	0.03922700
873.14	2.83908500	0.03889100
879.33	2.83676200	0.03855700
885.61	2.83446200	0.03822600
891.98	2.83218500	0.03789700
898.44	2.82993000	0.03757100
905.00	2.82769800	0.03724700
911.66	2.82548700	0.03692500
918.41	2.82329900	0.03660600
925.26	2.82113200	0.03629000
932.22	2.81898600	0.03597500
939.28	2.81686200	0.03566300
946.45	2.81475800	0.03535300
953.73	2.81267500	0.03504500
961.13	2.81061200	0.03474000
968.63	2.80857000	0.03443600
976.26	2.80654700	0.03413500
984.01	2.80454500	0.03383500
991.88	2.80256200	0.03353800
999.88	2.80059800	0.03324300
1008.01	2.79865300	0.03294900
1016.27	2.79672700	0.03265800
1024.67	2.79482000	0.03236800
1033.21	2.79293200	0.03208000
1041.89	2.79106200	0.03179500
1050.72	2.78921100	0.03151100
1059.70	2.78737700	0.03122800
1068.84	2.78556200	0.03094800
1078.13	2.78376400	0.03066900
1087.59	2.78198400	0.03039200
1097.21	2.78022100	0.03011700
1107.01	2.77847600	0.02984400
1116.98	2.77674800	0.02957200
1127.14	2.77503700	0.02930100
