; From SOPRA S.A. http://www.sopra-sa.com/indices.htm
; Filename    Symbol               Range (nm)     Description
; ZNCDTE3     Zn0.7Cd0.3Te        229     1127    Zinc Cadmium Telluride (30% Cd)
; lambda/nm       n         k
229.60	2.17783500	2.76059500
230.03	2.20085500	2.76171000
230.46	2.22415400	2.76217200
230.88	2.24770200	2.76195300
231.32	2.27146800	2.76102600
231.75	2.29542100	2.75936600
232.18	2.31951900	2.75694900
232.62	2.34372800	2.75375500
233.05	2.36800300	2.74976500
233.49	2.39230100	2.74496200
233.93	2.41657400	2.73933400
234.38	2.44077700	2.73287100
234.82	2.46485400	2.72556800
235.27	2.48876000	2.71742200
235.71	2.51243900	2.70843700
236.16	2.53584100	2.69861800
236.61	2.55890900	2.68797700
237.07	2.58159500	2.67652800
237.52	2.60384400	2.66429200
237.98	2.62560800	2.65129400
238.43	2.64683700	2.63756100
238.89	2.66748700	2.62312700
239.35	2.68751200	2.60802800
239.82	2.70687300	2.59230400
240.28	2.72535500	2.57625300
240.75	2.74327900	2.55941400
241.22	2.76043800	2.54208900
241.69	2.77680900	2.52433000
242.16	2.79237200	2.50618700
242.63	2.80711000	2.48771400
243.11	2.82101200	2.46896500
243.59	2.83407100	2.44999500
244.07	2.84628500	2.43085400
244.55	2.85765500	2.41159900
245.03	2.86818800	2.39227900
245.52	2.87789200	2.37294600
246.00	2.88678000	2.35364700
246.49	2.89487000	2.33442800
246.98	2.90218100	2.31533200
247.48	2.90873400	2.29640200
247.97	2.91455500	2.27767500
248.47	2.91966800	2.25918800
248.97	2.92410400	2.24097300
249.47	2.92789000	2.22305900
249.97	2.93105700	2.20547500
250.48	2.93363600	2.18824400
250.98	2.93566000	2.17138600
251.49	2.93716000	2.15492200
252.00	2.93816800	2.13886600
252.52	2.93871500	2.12323400
253.03	2.93883300	2.10803500
253.55	2.93855400	2.09327900
254.07	2.93790600	2.07897200
254.59	2.93692100	2.06512100
255.11	2.93562500	2.05172800
255.64	2.93404800	2.03879500
256.17	2.93221500	2.02632200
256.70	2.93015300	2.01430800
257.23	2.92788600	2.00275100
257.77	2.92543700	1.99164700
258.30	2.92282900	1.98099200
258.84	2.92008300	1.97078100
259.38	2.91721900	1.96101000
259.93	2.91425600	1.95166900
260.47	2.91121200	1.94275500
261.02	2.90810400	1.93425800
261.57	2.90494900	1.92617200
262.13	2.90176100	1.91848800
262.68	2.89855400	1.91120000
263.24	2.89534100	1.90429800
263.80	2.89213600	1.89777500
264.36	2.88894800	1.89162200
264.93	2.88579100	1.88583300
265.49	2.88267200	1.88039900
266.06	2.87960200	1.87531100
266.63	2.87659000	1.87056400
267.21	2.87364300	1.86614900
267.79	2.87077000	1.86205900
268.37	2.86797800	1.85828800
268.95	2.86527300	1.85482900
269.53	2.86266300	1.85167700
270.12	2.86015200	1.84882500
270.71	2.85774600	1.84626800
271.30	2.85545200	1.84400100
271.90	2.85327300	1.84202000
272.49	2.85121600	1.84032100
273.10	2.84928500	1.83890000
273.70	2.84748600	1.83775400
274.30	2.84582200	1.83688100
274.91	2.84429900	1.83627900
275.52	2.84292100	1.83594600
276.14	2.84169400	1.83588200
276.75	2.84062400	1.83608700
277.37	2.83971600	1.83656000
277.99	2.83897500	1.83730400
278.62	2.83840900	1.83832000
279.25	2.83802500	1.83961100
279.88	2.83783000	1.84118100
280.51	2.83783400	1.84303400
281.15	2.83804600	1.84517600
281.78	2.83847800	1.84761300
282.43	2.83914300	1.85035300
283.07	2.84005400	1.85340400
283.72	2.84122900	1.85677500
284.37	2.84268900	1.86047900
285.02	2.84445400	1.86452500
285.68	2.84655300	1.86892800
286.34	2.84901700	1.87370100
287.00	2.85188300	1.87885600
287.67	2.85519600	1.88440800
288.34	2.85900600	1.89036700
289.01	2.86337500	1.89674300
289.69	2.86837300	1.90353800
290.36	2.87408400	1.91075000
291.05	2.88059900	1.91836200
291.73	2.88802300	1.92634600
292.42	2.89646700	1.93465300
293.11	2.90605400	1.94321300
293.80	2.91690400	1.95192500
294.50	2.92913900	1.96066100
295.20	2.94286600	1.96925500
295.91	2.95817700	1.97750800
296.62	2.97513200	1.98518700
297.33	2.99375800	1.99202900
298.04	3.01402800	1.99774500
298.76	3.03585600	2.00203400
299.48	3.05909800	2.00459400
300.21	3.08353100	2.00513800
300.93	3.10887300	2.00341300
301.67	3.13477200	1.99921600
302.40	3.16083300	1.99241700
303.14	3.18662100	1.98296700
303.89	3.21169600	1.97090900
304.63	3.23562600	1.95638300
305.38	3.25802100	1.93961200
306.14	3.27854500	1.92089800
306.89	3.29693900	1.90059900
307.66	3.31302800	1.87910700
308.42	3.32672300	1.85682400
309.19	3.33760300	1.83485800
309.96	3.34655000	1.81217900
310.74	3.35328200	1.78980500
311.52	3.35796600	1.76801800
312.31	3.36079900	1.74704600
313.09	3.36199400	1.72706900
313.89	3.36177100	1.70822000
314.68	3.36034300	1.69058700
315.48	3.35791500	1.67422400
316.29	3.35467600	1.65915600
317.10	3.35079700	1.64538400
317.91	3.34643300	1.63288900
318.73	3.34171700	1.62164500
319.55	3.33676700	1.61161300
320.38	3.33168200	1.60275300
321.21	3.32654700	1.59502400
322.04	3.32143400	1.58838400
322.88	3.31640600	1.58279800
323.72	3.31151200	1.57823400
324.57	3.30679800	1.57466600
325.42	3.30230500	1.57208000
326.28	3.29807100	1.57046600
327.14	3.29413500	1.56982600
328.00	3.29053700	1.57017200
328.87	3.28732800	1.57152400
329.75	3.28456300	1.57391300
330.63	3.28231600	1.57737600
331.51	3.28067500	1.58195800
332.40	3.27975100	1.58770400
333.29	3.27968100	1.59465800
334.19	3.28063000	1.60285500
335.10	3.28279400	1.61231600
336.00	3.28640200	1.62303400
336.92	3.29171200	1.63496900
337.83	3.29900800	1.64803200
338.76	3.30859300	1.66207700
339.69	3.32077400	1.67689000
340.62	3.33585200	1.69218200
341.56	3.35410000	1.70758300
342.50	3.37574400	1.72264300
343.45	3.40093800	1.73683600
344.40	3.42974600	1.74957200
345.36	3.46211900	1.76022000
346.33	3.49787900	1.76812400
347.30	3.53670900	1.77264100
348.27	3.57814800	1.77317100
349.25	3.62160600	1.76919600
350.24	3.66637100	1.76031300
351.23	3.71164600	1.74626400
352.23	3.75658400	1.72696100
353.23	3.80032800	1.70249100
354.24	3.84206300	1.67311600
355.26	3.88104700	1.63926000
356.28	3.91666000	1.60147400
357.31	3.94841800	1.56040500
358.34	3.97599100	1.51675800
359.38	3.99920200	1.47125000
360.42	4.01801400	1.42458100
361.47	4.03252000	1.37739900
362.53	4.04290700	1.33028500
363.59	4.04944400	1.28373600
364.66	4.05244800	1.23816400
365.74	4.05226600	1.19389300
366.82	4.04858000	1.15101200
367.91	4.04311300	1.11001600
369.00	4.03551400	1.07085000
370.11	4.02610300	1.03357400
371.21	4.01517400	0.99820700
372.33	4.00272700	0.96474400
373.45	3.98952900	0.93311900
374.58	3.97552300	0.90328200
375.71	3.96089100	0.87516500
376.85	3.94578900	0.84868300
378.00	3.93035400	0.82375100
379.16	3.91470000	0.80028000
380.32	3.89892400	0.77818000
381.49	3.88310800	0.75736500
382.67	3.86732100	0.73775000
383.86	3.85161900	0.71925200
385.05	3.83604700	0.70179500
386.25	3.82064400	0.68530300
387.45	3.80543800	0.66970700
388.67	3.79045400	0.65494200
389.89	3.77570800	0.64094500
391.12	3.76121400	0.62765900
392.36	3.74697900	0.61503000
393.60	3.73300800	0.60300700
394.86	3.71930100	0.59154200
396.12	3.70585600	0.58059200
397.39	3.69226600	0.57023800
398.67	3.67928400	0.56021400
399.95	3.66638100	0.55064300
401.25	3.65380500	0.54141000
402.55	3.64139300	0.53253600
403.86	3.62910100	0.52401300
405.18	3.61686400	0.51585600
406.51	3.60459400	0.50812800
407.85	3.59217500	0.50099600
409.19	3.57950600	0.49486700
410.55	3.56681500	0.49070300
411.91	3.55615100	0.49002400
413.28	3.55339200	0.49013500
414.67	3.55458800	0.47902300
416.06	3.54568200	0.46318300
417.46	3.53215200	0.45221000
418.87	3.51878000	0.44467000
420.29	3.50633200	0.43880300
421.72	3.49472200	0.43380800
423.16	3.48378800	0.42933000
424.61	3.47340500	0.42519700
426.07	3.46348100	0.42132100
427.54	3.45395400	0.41764700
429.01	3.44477600	0.41414300
430.50	3.43578700	0.41078300
432.00	3.42722200	0.40755600
433.51	3.41855000	0.40444500
435.04	3.41052400	0.40144300
436.57	3.40273100	0.39853800
438.11	3.39516000	0.39572100
439.66	3.38780000	0.39298700
441.23	3.38064400	0.39033000
442.80	3.37368300	0.38774300
444.39	3.36691000	0.38522300
445.99	3.36032100	0.38276300
447.60	3.35390800	0.38036000
449.22	3.34766700	0.37800900
450.86	3.34159300	0.37570700
452.50	3.33568100	0.37344900
454.16	3.32992800	0.37123100
455.83	3.32432900	0.36905100
457.51	3.31888200	0.36690500
459.20	3.31358200	0.36478900
460.91	3.30842600	0.36270100
462.63	3.30341200	0.36063600
464.36	3.29853600	0.35859300
466.11	3.29379600	0.35656900
467.87	3.28918800	0.35455900
469.64	3.28471200	0.35256300
471.43	3.28036300	0.35057600
473.23	3.27614100	0.34859600
475.04	3.27204200	0.34662000
476.87	3.26806500	0.34464600
478.71	3.26420700	0.34267000
480.56	3.26046800	0.34069100
482.43	3.25684400	0.33870600
484.32	3.25333500	0.33671100
486.22	3.24993800	0.33470400
488.13	3.24665100	0.33268200
490.06	3.24347400	0.33064400
492.00	3.24040500	0.32858400
493.96	3.23744200	0.32650200
495.94	3.23458300	0.32439400
497.93	3.23182800	0.32225600
499.94	3.22917400	0.32008700
501.96	3.22662100	0.31788200
504.00	3.22416700	0.31563900
506.06	3.22181100	0.31335400
508.14	3.21955100	0.31102300
510.23	3.21738600	0.30864400
512.34	3.21531400	0.30621200
514.46	3.21333500	0.30372300
516.60	3.21144700	0.30117300
518.77	3.20964700	0.29855900
520.95	3.20793600	0.29587400
523.14	3.20631100	0.29311500
525.36	3.20477100	0.29027600
527.60	3.20331300	0.28735200
529.85	3.20193600	0.28433700
532.13	3.20063900	0.28122500
534.42	3.19896700	0.27807900
536.73	3.19780000	0.27475500
539.07	3.19670400	0.27131300
541.42	3.19552100	0.26776800
543.79	3.19454600	0.26406500
546.19	3.19362800	0.26021600
548.61	3.19276100	0.25621000
551.05	3.19193900	0.25203500
553.51	3.19115500	0.24767800
555.99	3.19039800	0.24312500
558.49	3.18965900	0.23836000
561.02	3.18892200	0.23336300
563.57	3.18817100	0.22811500
566.14	3.18738100	0.22259400
568.74	3.18652400	0.21677500
571.36	3.18556100	0.21063000
574.01	3.18443800	0.20413200
576.68	3.18308300	0.19725000
579.37	3.18139100	0.18996500
582.09	3.17921200	0.18226900
584.84	3.17632100	0.17420600
587.61	3.17237700	0.16594100
590.41	3.16689700	0.15796100
593.23	3.15939500	0.15160700
596.08	3.15043500	0.15079500
598.96	3.14933800	0.15760900
601.87	3.16684700	0.15531200
604.81	3.17434300	0.12789400
607.77	3.16232900	0.10491100
610.76	3.14637700	0.09209900
613.79	3.13171700	0.08477900
616.84	3.11883400	0.08014400
619.93	3.10742100	0.07691700
623.04	3.09715000	0.07449400
626.19	3.08776600	0.07256700
629.37	3.07908800	0.07096600
632.58	3.07098400	0.06958900
635.82	3.06335500	0.06837400
639.10	3.05612800	0.06727900
642.41	3.04924500	0.06627700
645.76	3.04266100	0.06534900
649.14	3.03634000	0.06447900
652.55	3.03025400	0.06365800
656.01	3.02437800	0.06287800
659.50	3.01869200	0.06213300
663.02	3.01317900	0.06141700
666.59	3.00782400	0.06072700
670.19	3.00261600	0.06005900
673.83	2.99754200	0.05941300
677.51	2.99259500	0.05878400
681.24	2.98761800	0.05816500
685.00	2.98290400	0.05756800
688.81	2.97829300	0.05698500
692.65	2.97333300	0.05639600
696.55	2.96892600	0.05583900
700.48	2.96460600	0.05529200
704.46	2.96036800	0.05475600
708.49	2.95620900	0.05422900
712.56	2.95212400	0.05371100
716.68	2.94811200	0.05320100
720.84	2.94416800	0.05269900
725.06	2.94029000	0.05220500
729.32	2.93647600	0.05171900
733.64	2.93272300	0.05123900
738.01	2.92902900	0.05076600
742.43	2.92539200	0.05029900
746.90	2.92181100	0.04983800
751.43	2.91828200	0.04938400
756.01	2.91480600	0.04893500
760.65	2.91137900	0.04849100
765.34	2.90800100	0.04805300
770.09	2.90429000	0.04759300
774.91	2.90100700	0.04716500
779.78	2.89776800	0.04674200
784.72	2.89457300	0.04632400
789.71	2.89142100	0.04591100
794.78	2.88831000	0.04550200
799.90	2.88523900	0.04509700
805.10	2.88220800	0.04469600
810.36	2.87921600	0.04430000
815.69	2.87626100	0.04390700
821.09	2.87334300	0.04351900
826.57	2.87046100	0.04313400
832.12	2.86761400	0.04275300
837.74	2.86480100	0.04237600
843.44	2.86202300	0.04200200
849.21	2.85927800	0.04163200
855.07	2.85656500	0.04126500
861.01	2.85388500	0.04090200
867.03	2.85123600	0.04054200
873.14	2.84861700	0.04018500
879.33	2.84602900	0.03983100
885.61	2.84347100	0.03948100
891.98	2.84094100	0.03913300
898.44	2.83844100	0.03878900
905.00	2.83596800	0.03844700
911.66	2.83352400	0.03810800
918.41	2.83110700	0.03777200
925.26	2.82871700	0.03743900
932.22	2.82635300	0.03710800
939.28	2.82401500	0.03678000
946.45	2.82170300	0.03645500
953.73	2.81941700	0.03613200
961.13	2.81715500	0.03581200
968.63	2.81491900	0.03549400
976.26	2.81270600	0.03517900
984.01	2.81051700	0.03486600
991.88	2.80835200	0.03455600
999.88	2.80621000	0.03424700
1008.01	2.80409100	0.03394100
1016.27	2.80199600	0.03363800
1024.67	2.79992200	0.03333600
1033.21	2.79787000	0.03303700
1041.89	2.79584100	0.03273900
1050.72	2.79383300	0.03244400
1059.70	2.79184600	0.03215100
1068.84	2.78988100	0.03186000
1078.13	2.78793600	0.03157100
1087.59	2.78601200	0.03128400
1097.21	2.78410800	0.03099800
1107.01	2.78222500	0.03071500
1116.98	2.78036100	0.03043400
1127.14	2.77851700	0.03015400
