; From SOPRA S.A. http://www.sopra-sa.com/indices.htm
; Filename    Symbol               Range (nm)     Description
; ZNSCUB      ZnS                 206     1239    Zinc Sulfide (cubic)
; lambda/nm       n         k
206.64	2.24000000	1.65000000
208.38	2.35100000	1.72528000
210.14	2.46510000	1.76624000
211.94	2.57970000	1.77656000
213.77	2.69220000	1.75992000
215.63	2.80000000	1.72000000
217.52	2.90060000	1.66048000
219.44	2.99150000	1.58504000
221.40	3.07010000	1.49736000
223.40	3.13380000	1.40112000
225.43	3.18000000	1.30000000
227.50	3.17900000	1.20248100
229.60	3.16230000	1.10624000
231.75	3.13410000	1.01376000
233.93	3.09860000	0.92752000
236.16	3.06000000	0.85000000
238.43	3.03990000	0.80160000
240.75	3.02100000	0.76240000
243.11	3.00300000	0.73040000
245.52	2.98610000	0.70360000
247.97	2.97000000	0.68000000
250.48	2.95570000	0.64864000
253.03	2.94180000	0.61872000
255.64	2.92820000	0.59048000
258.30	2.91430000	0.56416000
261.02	2.90000000	0.54000000
263.80	2.88230000	0.51984000
266.63	2.86420000	0.50192000
269.53	2.84580000	0.48608000
272.49	2.82770000	0.47216000
275.52	2.81000000	0.46000000
278.62	2.79410000	0.44816000
281.78	2.77900000	0.43808000
285.02	2.76500000	0.42992000
288.34	2.75190000	0.42384000
291.73	2.74000000	0.42000000
295.20	2.72480000	0.42624000
298.76	2.71200000	0.43312000
302.40	2.70280000	0.43888000
306.14	2.69840000	0.44176000
309.96	2.70000000	0.44000000
313.89	2.72540000	0.42160000
317.91	2.75510000	0.39760000
322.04	2.78610000	0.36880000
326.28	2.81540000	0.33600000
330.63	2.84000000	0.30000000
335.10	2.84230000	0.25776000
339.69	2.83780000	0.21488000
344.40	2.82700000	0.17312000
349.25	2.81090000	0.13424000
354.24	2.79000000	0.10000000
359.38	2.76320000	0.08368000
364.66	2.73360000	0.07264000
370.11	2.70240000	0.06576000
375.71	2.67080000	0.06192000
381.49	2.64000000	0.06000000
387.45	2.61670000	0.05568000
393.60	2.59520000	0.05184000
399.95	2.57540000	0.04816000
406.51	2.55700000	0.04432000
413.28	2.54000000	0.04000000
420.29	2.52290000	0.02982000
427.54	2.50710000	0.01978500
435.04	2.49270000	0.01084200
442.80	2.47990000	0.00393400
450.86	2.46870000	0.00000700
459.20	2.45930000	0.00000700
467.87	2.45020000	0.00000700
476.87	2.44140000	0.00000600
486.22	2.43300000	0.00000600
495.94	2.42480000	0.00000500
506.06	2.41700000	0.00000400
516.60	2.40940000	0.00000400
527.60	2.40210000	0.00000400
539.07	2.39500000	0.00000400
551.05	2.38820000	0.00000400
563.57	2.38160000	0.00000400
576.68	2.37530000	0.00000400
590.41	2.36920000	0.00000400
604.81	2.36330000	0.00000400
619.93	2.35760000	0.00000400
635.82	2.35200000	0.00000400
652.55	2.34670000	0.00000400
670.19	2.34160000	0.00000400
688.81	2.33670000	0.00000400
708.49	2.33190000	0.00000400
729.32	2.32740000	0.00000400
751.43	2.32290000	0.00000400
774.91	2.31870000	0.00000400
799.90	2.31460000	0.00000400
826.57	2.31070000	0.00000300
855.07	2.30690000	0.00000300
885.61	2.30330000	0.00000300
918.41	2.29980000	0.00000300
953.73	2.29650000	0.00000300
991.88	2.29330000	0.00000300
1033.21	2.29030000	0.00000000
1078.13	2.28740000	0.00000000
1127.14	2.28460000	0.00000000
1180.81	2.28200000	0.00000000
1239.85	2.27950000	0.00000000
