; From SOPRA S.A. http://www.sopra-sa.com/indices.htm
; Filename    Symbol               Range (nm)     Description
; ZNSETE0     ZnSe                196     1771    Zinc Selenium Telluride (0% Te)     *
; lambda/nm       n         k
196.80	1.34626100	2.25378600
197.19	1.35097900	2.26096900
197.59	1.35578500	2.26824000
197.98	1.36067900	2.27559800
198.38	1.36566600	2.28304700
198.77	1.37074900	2.29058600
199.17	1.37593100	2.29821800
199.57	1.38121700	2.30594500
199.98	1.38661000	2.31376600
200.38	1.39211500	2.32168500
200.79	1.39773600	2.32970100
201.19	1.40347700	2.33781700
201.60	1.40934300	2.34603300
202.01	1.41533900	2.35435100
202.42	1.42147000	2.36277200
202.84	1.42774100	2.37129800
203.25	1.43415800	2.37992800
203.67	1.44072700	2.38866500
204.09	1.44745400	2.39750800
204.51	1.45434600	2.40645900
204.93	1.46140800	2.41551900
205.36	1.46864800	2.42468600
205.78	1.47607400	2.43396400
206.21	1.48369200	2.44335100
206.64	1.49151200	2.45284700
207.07	1.49954000	2.46245100
207.51	1.50778600	2.47216500
207.94	1.51625900	2.48198600
208.38	1.52496800	2.49191500
208.82	1.53392200	2.50194800
209.26	1.54313300	2.51208500
209.70	1.55261000	2.52232400
210.14	1.56236500	2.53266200
210.59	1.57240900	2.54309600
211.04	1.58275400	2.55362300
211.49	1.59341100	2.56423800
211.94	1.60422300	2.57526900
212.39	1.61554600	2.58604600
212.85	1.62722000	2.59689600
213.31	1.63926100	2.60781100
213.77	1.65168300	2.61878300
214.23	1.66450000	2.62980400
214.69	1.67772800	2.64086400
215.16	1.69138300	2.65195200
215.63	1.70547900	2.66305600
216.10	1.72003300	2.67416200
216.57	1.73506100	2.68525600
217.04	1.75058000	2.69632300
217.52	1.76660500	2.70734200
218.00	1.78315400	2.71829600
218.48	1.80024100	2.72916300
218.96	1.81788200	2.73991900
219.44	1.83609500	2.75054000
219.93	1.85489100	2.76099900
220.42	1.87428700	2.77126500
220.91	1.89429400	2.78130800
221.40	1.91492500	2.79109200
221.90	1.93618900	2.80058300
222.39	1.95809500	2.80974000
222.89	1.98065100	2.81852300
223.40	2.00385700	2.82688800
223.90	2.02771700	2.83478900
224.41	2.05223000	2.84217900
224.92	2.07738800	2.84900500
225.43	2.10318400	2.85521700
225.94	2.12960200	2.86076000
226.46	2.15662600	2.86558000
226.98	2.18423200	2.86962000
227.50	2.21238900	2.87282400
228.02	2.24106700	2.87513400
228.54	2.27022000	2.87649600
229.07	2.29980500	2.87685400
229.60	2.32976700	2.87615600
230.13	2.36004600	2.87435300
230.67	2.39057600	2.87139900
231.21	2.42128300	2.86725300
231.75	2.45209000	2.86187800
232.29	2.48291400	2.85524700
232.84	2.51366400	2.84733700
233.38	2.54425000	2.83813500
233.93	2.57457100	2.82763600
234.49	2.60453200	2.81584500
235.04	2.63403400	2.80277500
235.60	2.66281100	2.78870500
236.16	2.69109300	2.77316600
236.73	2.71862300	2.75645600
237.29	2.74531000	2.73862800
237.86	2.77107100	2.71974700
238.43	2.79582500	2.69988600
239.01	2.81950300	2.67912600
239.58	2.84204200	2.65755500
240.16	2.86338900	2.63526500
240.75	2.88350200	2.61235300
241.33	2.90234800	2.58892000
241.92	2.91990500	2.56506600
242.51	2.93616000	2.54089500
243.11	2.95111300	2.51650600
243.71	2.96477100	2.49199700
244.31	2.97715000	2.46746400
244.91	2.98827500	2.44299900
245.52	2.99817900	2.41868700
246.12	3.00690200	2.39460800
246.74	3.01448600	2.37083700
247.35	3.02098300	2.34744200
247.97	3.02644500	2.32448400
248.59	3.03092800	2.30201800
249.22	3.03449200	2.28009200
249.84	3.03719400	2.25874800
250.48	3.03909600	2.23802200
251.11	3.04025800	2.21794100
251.75	3.04073900	2.19853200
252.39	3.04059900	2.17981100
253.03	3.03989500	2.16179400
253.68	3.03868100	2.14449000
254.33	3.03701200	2.12790400
254.98	3.03494000	2.11204000
255.64	3.03251100	2.09689500
256.30	3.02977400	2.08246700
256.96	3.02677300	2.06874900
257.63	3.02354700	2.05573400
258.30	3.02013800	2.04341200
258.98	3.01657900	2.03177200
259.65	3.01290700	2.02080300
260.34	3.00915200	2.01049100
261.02	3.00534400	2.00082400
261.71	3.00151100	1.99178900
262.40	2.99767700	1.98337200
263.10	2.99386600	1.97555900
263.80	2.99010000	1.96833800
264.50	2.98639900	1.96169500
265.21	2.98278200	1.95562000
265.92	2.97926600	1.95009900
266.63	2.97586900	1.94512300
267.35	2.97260500	1.94068200
268.08	2.96948800	1.93676700
268.80	2.96653400	1.93337000
269.53	2.96375600	1.93048600
270.27	2.96116700	1.92811000
271.01	2.95878100	1.92623800
271.75	2.95661000	1.92486800
272.49	2.95467000	1.92400100
273.25	2.95297600	1.92363800
274.00	2.95154200	1.92378200
274.76	2.95038700	1.92443900
275.52	2.94953000	1.92561700
276.29	2.94899200	1.92732700
277.06	2.94879900	1.92958000
277.84	2.94898000	1.93239400
278.62	2.94956700	1.93578500
279.40	2.95060000	1.93977500
280.19	2.95212500	1.94438800
280.99	2.95420000	1.94965200
281.78	2.95689100	1.95559500
282.59	2.96028200	1.96224800
283.39	2.96447400	1.96964300
284.21	2.96959200	1.97780600
285.02	2.97579100	1.98675500
285.84	2.98372600	1.99718900
286.67	2.99272800	2.00763700
287.50	3.00291500	2.01814700
288.34	3.01565800	2.02985600
289.18	3.03074600	2.04188100
290.02	3.04847900	2.05389400
290.87	3.06912200	2.06545500
291.73	3.09286200	2.07600300
292.59	3.11976000	2.08487200
293.46	3.14971000	2.09131800
294.33	3.18239700	2.09457100
295.20	3.21727000	2.09390100
296.08	3.25355700	2.08869700
296.97	3.29028300	2.07855700
297.86	3.32635500	2.06334900
298.76	3.36064800	2.04325800
299.66	3.39212500	2.01877700
300.57	3.41993100	1.99066600
301.48	3.44346900	1.95986600
302.40	3.46243000	1.92740100
303.33	3.47636000	1.89494500
304.26	3.48631800	1.86209400
305.19	3.49227500	1.83025600
306.14	3.49473000	1.80001700
307.08	3.49423400	1.77179500
308.04	3.49134000	1.74585200
309.00	3.48657200	1.72232600
309.96	3.48039800	1.70125100
310.93	3.47322900	1.68259700
311.91	3.46541100	1.66627900
312.90	3.45723000	1.65219200
313.89	3.44891700	1.64021300
314.88	3.44065900	1.63022100
315.89	3.43260000	1.62210300
316.90	3.42485400	1.61575900
317.91	3.41751200	1.61110900
318.93	3.41064700	1.60809500
319.96	3.40432500	1.60668500
321.00	3.39861100	1.60687400
322.04	3.39357700	1.60868900
323.09	3.38931700	1.61218300
324.14	3.38595600	1.61744100
325.21	3.38366700	1.62456900
326.28	3.38268800	1.63368500
327.35	3.38333400	1.64490700
328.44	3.38601700	1.65832100
329.53	3.39125200	1.67395400
330.63	3.39965600	1.69172500
331.73	3.41193200	1.71140400
332.85	3.42883200	1.73255600
333.97	3.45110000	1.75450700
335.10	3.47939200	1.77631600
336.23	3.51418600	1.79678200
337.37	3.55567800	1.81447300
338.53	3.60370100	1.82781400
339.69	3.65763900	1.83518600
340.85	3.71641300	1.83508400
342.03	3.77849800	1.82626400
343.21	3.84201100	1.80790500
344.40	3.90486200	1.77971300
345.60	3.96493500	1.74198600
346.81	4.02028500	1.69558500
348.03	4.06931000	1.64184000
349.25	4.11087600	1.58239500
350.49	4.14435900	1.51902700
351.73	4.16961500	1.45349100
352.98	4.18692000	1.38737400
354.24	4.19685000	1.32202000
355.51	4.20018200	1.25848600
356.79	4.19778900	1.19754400
358.08	4.19056300	1.13970900
359.38	4.17936100	1.08527800
360.68	4.16430000	1.03423000
362.00	4.14741800	0.98686400
363.33	4.12863000	0.94292800
364.66	4.10844300	0.90226500
366.01	4.08727200	0.86468000
367.36	4.06545800	0.82995700
368.73	4.04327600	0.79787700
370.11	4.02067100	0.76822100
371.49	3.99798700	0.74088900
372.89	3.97576600	0.71545900
374.29	3.95363400	0.69190100
375.71	3.93189500	0.66996000
377.14	3.91045500	0.64952900
378.58	3.88930800	0.63048700
380.03	3.86841200	0.61275200
381.49	3.84768300	0.59631900
382.97	3.82700100	0.58134300
384.45	3.80631500	0.56836800
385.95	3.78637600	0.55874500
387.45	3.77155300	0.55320000
388.97	3.76591100	0.54195800
390.50	3.75380400	0.52049600
392.05	3.73404200	0.50307400
393.60	3.71393300	0.49038700
395.17	3.69502500	0.48012300
396.75	3.67728100	0.47118100
398.35	3.66050700	0.46308600
399.95	3.64454500	0.45561100
401.57	3.62928500	0.44863100
403.20	3.61464700	0.44206700
404.85	3.60057200	0.43586500
406.51	3.58689500	0.42998200
408.18	3.57382900	0.42438900
409.87	3.56086200	0.41905700
411.57	3.54869500	0.41396300
413.28	3.53693100	0.40908500
415.01	3.52555000	0.40440300
416.76	3.51453700	0.39990100
418.52	3.50387700	0.39556300
420.29	3.49355500	0.39137700
422.08	3.48356000	0.38732800
423.88	3.47388000	0.38340500
425.70	3.46450400	0.37959600
427.54	3.45542300	0.37589000
429.39	3.44662500	0.37227900
431.25	3.43810400	0.36875200
433.14	3.42985100	0.36530100
435.04	3.42185700	0.36191600
436.95	3.41411600	0.35859100
438.89	3.40662000	0.35531600
440.84	3.39936200	0.35208600
442.80	3.39233700	0.34889100
444.79	3.38553800	0.34572700
446.79	3.37895900	0.34258400
448.82	3.37259500	0.33945700
450.86	3.36644100	0.33634000
452.91	3.36049200	0.33322500
454.99	3.35474200	0.33010600
457.09	3.34918700	0.32697700
459.20	3.34382200	0.32383100
461.34	3.33864400	0.32066100
463.50	3.33364700	0.31746100
465.67	3.32882700	0.31422300
467.87	3.32418100	0.31094200
470.09	3.31970400	0.30760900
472.32	3.31539200	0.30421800
474.58	3.31124100	0.30076000
476.87	3.30724700	0.29722700
479.17	3.30340500	0.29361100
481.50	3.29927300	0.28997100
483.84	3.29570300	0.28616400
486.22	3.29226900	0.28224600
488.61	3.28881600	0.27822900
491.03	3.28563000	0.27405500
493.47	3.28256100	0.26973400
495.94	3.27960100	0.26525000
498.43	3.27674000	0.26059100
500.95	3.27396800	0.25573700
503.49	3.27127100	0.25067000
506.06	3.26863300	0.24537000
508.66	3.26603500	0.23981300
511.28	3.26345100	0.23397300
513.93	3.26084900	0.22782100
516.60	3.25818300	0.22132500
519.31	3.25539500	0.21445200
522.04	3.25240200	0.20716900
524.80	3.24908300	0.19944900
527.60	3.24526000	0.19128700
530.42	3.24066200	0.18274300
533.27	3.23487400	0.17404800
536.15	3.22730900	0.16591200
539.07	3.21758500	0.16036800
542.01	3.20831900	0.16274400
544.99	3.21485600	0.16965500
548.00	3.23227000	0.15185500
551.05	3.22502900	0.12245700
554.12	3.20748200	0.10529500
557.24	3.19035600	0.09598600
560.39	3.17524000	0.09035100
563.57	3.16186800	0.08652200
566.79	3.14983700	0.08367300
570.05	3.13883500	0.08140700
573.34	3.12864200	0.07951100
576.68	3.11910000	0.07786700
580.05	3.11009400	0.07640200
583.46	3.10154000	0.07507000
586.91	3.09337300	0.07383900
590.41	3.08554300	0.07269000
593.94	3.07800900	0.07160500
597.52	3.07073900	0.07057500
601.14	3.06370700	0.06959100
604.81	3.05689200	0.06864500
608.52	3.05027300	0.06773500
612.27	3.04383600	0.06685400
616.08	3.03756700	0.06600000
619.93	3.03145500	0.06517000
623.82	3.02534200	0.06435600
627.77	3.01951800	0.06356900
631.77	3.01382200	0.06280100
635.82	3.00780600	0.06203200
639.92	3.00236200	0.06129800
644.08	2.99702800	0.06058000
648.29	2.99179600	0.05987500
652.55	2.98666400	0.05918400
656.88	2.98162600	0.05850500
661.25	2.97667800	0.05783800
665.69	2.97181800	0.05718300
670.19	2.96704100	0.05653800
674.75	2.96234500	0.05590400
679.37	2.95772700	0.05528000
684.06	2.95318500	0.05466500
688.81	2.94871500	0.05406000
693.62	2.94431600	0.05346300
698.51	2.93998600	0.05287500
703.46	2.93572100	0.05229600
708.49	2.93152200	0.05172500
713.58	2.92738500	0.05116100
718.75	2.92331000	0.05060500
724.00	2.91929300	0.05005600
729.32	2.91533500	0.04951500
734.73	2.91143400	0.04898000
740.21	2.90758700	0.04845200
745.78	2.90379500	0.04793100
751.43	2.89967400	0.04739200
757.16	2.89598700	0.04688400
762.99	2.89235000	0.04638100
768.90	2.88876300	0.04588500
774.91	2.88522400	0.04539400
781.01	2.88173300	0.04490900
787.21	2.87828700	0.04442900
793.51	2.87488700	0.04395500
799.90	2.87153200	0.04348600
806.41	2.86822000	0.04302200
813.02	2.86495100	0.04256300
819.74	2.86172400	0.04210900
826.57	2.85853800	0.04166000
833.51	2.85539300	0.04121500
840.58	2.85228800	0.04077500
847.76	2.84922300	0.04034000
855.07	2.84619600	0.03990800
862.51	2.84320700	0.03948200
870.07	2.84025500	0.03905900
877.77	2.83734000	0.03864000
885.61	2.83446200	0.03822600
893.59	2.83161900	0.03781500
901.71	2.82881100	0.03740800
909.98	2.82603800	0.03700600
918.41	2.82329900	0.03660600
926.99	2.82059400	0.03621100
935.74	2.81792200	0.03581900
944.65	2.81528200	0.03543000
953.73	2.81267500	0.03504500
962.99	2.81010000	0.03466300
972.43	2.80755600	0.03428500
982.06	2.80504300	0.03391000
991.88	2.80256200	0.03353800
1001.90	2.80011000	0.03316900
1012.12	2.79768800	0.03280300
1022.56	2.79529500	0.03244000
1033.21	2.79293200	0.03208000
1044.09	2.79059800	0.03172300
1055.19	2.78829200	0.03136900
1066.54	2.78601400	0.03101800
1078.13	2.78376400	0.03066900
1089.98	2.78154200	0.03032300
1102.09	2.77934600	0.02998000
1114.47	2.77717800	0.02963900
1127.14	2.77503700	0.02930100
1140.09	2.77292100	0.02896600
1153.35	2.77083200	0.02863200
1166.92	2.76876900	0.02830100
1180.81	2.76673100	0.02797300
1195.04	2.76471900	0.02764700
1209.61	2.76273100	0.02732300
1224.55	2.76076800	0.02700100
1239.85	2.75883000	0.02668200
1255.55	2.75691600	0.02636500
1271.64	2.75502700	0.02604900
1288.16	2.75316100	0.02573600
1305.11	2.75131900	0.02542500
1322.51	2.74950000	0.02511600
1340.38	2.74770400	0.02480900
1358.74	2.74593200	0.02450400
1377.61	2.74418200	0.02420100
1397.02	2.74245500	0.02389900
1416.97	2.74075100	0.02360000
1437.51	2.73906800	0.02330200
1458.65	2.73740800	0.02300600
1480.42	2.73577000	0.02271200
1502.85	2.73415300	0.02241900
1525.97	2.73255800	0.02212800
1549.81	2.73098500	0.02183900
1574.41	2.72943200	0.02155100
1599.81	2.72790100	0.02126500
1626.04	2.72639100	0.02098000
1653.14	2.72490100	0.02069700
1681.16	2.72343200	0.02041600
1710.14	2.72198400	0.02013600
1740.14	2.72055600	0.01985700
1771.22	2.71914800	0.01958000
