; From SOPRA S.A. http://www.sopra-sa.com/indices.htm
; Filename    Symbol               Range (nm)     Description
; ZNSETE5     ZnSe0.5Te0.5        196     1771    Zinc Selenium Telluride (50% Te)    *
; lambda/nm       n         k
196.80	1.74365400	2.67440600
197.19	1.76544300	2.67853300
197.59	1.78762700	2.68215800
197.98	1.81018900	2.68524900
198.38	1.83311700	2.68777600
198.77	1.85639200	2.68970800
199.17	1.87999300	2.69101600
199.57	1.90390200	2.69166900
199.98	1.92808800	2.69163800
200.38	1.95252700	2.69089500
200.79	1.97718500	2.68941200
201.19	2.00203000	2.68716200
201.60	2.02702600	2.68412200
202.01	2.05213400	2.68026800
202.42	2.07731100	2.67558000
202.84	2.10251300	2.67004200
203.25	2.12769300	2.66363700
203.67	2.15280400	2.65635500
204.09	2.17779400	2.64818800
204.51	2.20261200	2.63913100
204.93	2.22720300	2.62918400
205.36	2.25151400	2.61835000
205.78	2.27549300	2.60663800
206.21	2.29908100	2.59406100
206.64	2.32222800	2.58063400
207.07	2.34487800	2.56638100
207.51	2.36698100	2.55132600
207.94	2.38848600	2.53550000
208.38	2.40934700	2.51893700
208.82	2.42951700	2.50167600
209.26	2.44895600	2.48375800
209.70	2.46762500	2.46522800
210.14	2.48549000	2.44613300
210.59	2.50251900	2.42652600
211.04	2.51868700	2.40645600
211.49	2.53397200	2.38598000
211.94	2.54835600	2.36515200
212.39	2.56182800	2.34402700
212.85	2.57437600	2.32266200
213.31	2.58600000	2.30111100
213.77	2.59669700	2.27943300
214.23	2.60647300	2.25767900
214.69	2.61533600	2.23590100
215.16	2.62329900	2.21415200
215.63	2.63037500	2.19247900
216.10	2.63658400	2.17093100
216.57	2.64194700	2.14954900
217.04	2.64627900	2.12864100
217.52	2.65001900	2.10772000
218.00	2.65299000	2.08708100
218.48	2.65522100	2.06676100
218.96	2.65674200	2.04678900
219.44	2.65758500	2.02718900
219.93	2.65778200	2.00799100
220.42	2.65736400	1.98921300
220.91	2.65636500	1.97087500
221.40	2.65481700	1.95299500
221.90	2.65275200	1.93558600
222.39	2.65020200	1.91866100
222.89	2.64719900	1.90222800
223.40	2.64377400	1.88629800
223.90	2.63995600	1.87087400
224.41	2.63577400	1.85596200
224.92	2.63125800	1.84156500
225.43	2.62643400	1.82768300
225.94	2.62132900	1.81431700
226.46	2.61596800	1.80146600
226.98	2.61037400	1.78912600
227.50	2.60457300	1.77729700
228.02	2.59858500	1.76597200
228.54	2.59243200	1.75514900
229.07	2.58613300	1.74482100
229.60	2.57970700	1.73498200
230.13	2.57317400	1.72562800
230.67	2.56654900	1.71675100
231.21	2.55984900	1.70834500
231.75	2.55308900	1.70040200
232.29	2.54628400	1.69291600
232.84	2.53944600	1.68587900
233.38	2.53258900	1.67928500
233.93	2.52572500	1.67312600
234.49	2.51886500	1.66739400
235.04	2.51202000	1.66208400
235.60	2.50520000	1.65718800
236.16	2.49841300	1.65269900
236.73	2.49167100	1.64861200
237.29	2.48498000	1.64491900
237.86	2.47834800	1.64161600
238.43	2.47178400	1.63869500
239.01	2.46529500	1.63615300
239.58	2.45888700	1.63398300
240.16	2.45256800	1.63218100
240.75	2.44634300	1.63074300
241.33	2.44021900	1.62966400
241.92	2.43420200	1.62894200
242.51	2.42829900	1.62857100
243.11	2.42251400	1.62855100
243.71	2.41685300	1.62887700
244.31	2.41132400	1.62954900
244.91	2.40593100	1.63056300
245.52	2.40068100	1.63192000
246.12	2.39558100	1.63361800
246.74	2.39063600	1.63565700
247.35	2.38585300	1.63803600
247.97	2.38124100	1.64075600
248.59	2.37680500	1.64381800
249.22	2.37255600	1.64722300
249.84	2.36850000	1.65097200
250.48	2.36464900	1.65506700
251.11	2.36101000	1.65951100
251.75	2.35759700	1.66430500
252.39	2.35442000	1.66945300
253.03	2.35149200	1.67495700
253.68	2.34882800	1.68082100
254.33	2.34644200	1.68704800
254.98	2.34435200	1.69363900
255.64	2.34257500	1.70060000
256.30	2.34113200	1.70793100
256.96	2.34004400	1.71563500
257.63	2.33933400	1.72371400
258.30	2.33902800	1.73216700
258.98	2.33915400	1.74099500
259.65	2.33974100	1.75019600
260.34	2.34082200	1.75976400
261.02	2.34243100	1.76969500
261.71	2.34460700	1.77998000
262.40	2.34738800	1.79060700
263.10	2.35081700	1.80156000
263.80	2.35493700	1.81282000
264.50	2.35979600	1.82436200
265.21	2.36544100	1.83615400
265.92	2.37192100	1.84816100
266.63	2.37928700	1.86033800
267.35	2.38758600	1.87263200
268.08	2.39686800	1.88498400
268.80	2.40717700	1.89732200
269.53	2.41855600	1.90956600
270.27	2.43103900	1.92162600
271.01	2.44465500	1.93339900
271.75	2.45942100	1.94477500
272.49	2.47534300	1.95563200
273.25	2.49240900	1.96583900
274.00	2.51059100	1.97525800
274.76	2.52983900	1.98374800
275.52	2.55008000	1.99116400
276.29	2.57121200	1.99736700
277.06	2.59310900	2.00222500
277.84	2.61561500	2.00562200
278.62	2.63854900	2.00746000
279.40	2.66170800	2.00767300
280.19	2.68486800	2.00622700
280.99	2.70779400	2.00312700
281.78	2.73025000	1.99842200
282.59	2.75200300	1.99220600
283.39	2.77258700	1.98548200
284.21	2.79232300	1.97671300
285.02	2.81079900	1.96695800
285.84	2.82790000	1.95645400
286.67	2.84355700	1.94545500
287.50	2.85774900	1.93422000
288.34	2.87049900	1.92301000
289.18	2.88187800	1.91206900
290.02	2.89199300	1.90162800
290.87	2.90098700	1.89188800
291.73	2.90903100	1.88302400
292.59	2.91631900	1.87518000
293.46	2.92306000	1.86846300
294.33	2.92947200	1.86295200
295.20	2.93578100	1.85868800
296.08	2.94221400	1.85568500
296.97	2.94899600	1.85392400
297.86	2.95634800	1.85335600
298.76	2.96448200	1.85390700
299.66	2.97360300	1.85547400
300.57	2.98390200	1.85792800
301.48	2.99555800	1.86111700
302.40	3.00873200	1.86486100
303.33	3.02356700	1.86895900
304.26	3.04018400	1.87318600
305.19	3.05867700	1.87729300
306.14	3.07911100	1.88101300
307.08	3.10151600	1.88406200
308.04	3.12588300	1.88613800
309.00	3.15215700	1.88693300
309.96	3.18024200	1.88613600
310.93	3.20998200	1.88343900
311.91	3.24117400	1.87855100
312.90	3.27355800	1.87120400
313.89	3.30682800	1.86116800
314.88	3.34062800	1.84826100
315.89	3.37456900	1.83235800
316.90	3.40823900	1.81340200
317.91	3.44121300	1.79140800
318.93	3.47307300	1.76646400
319.96	3.50341900	1.73873300
321.00	3.53189000	1.70844100
322.04	3.55817500	1.67587000
323.09	3.58201600	1.64135100
324.14	3.60322500	1.60523700
325.21	3.62167700	1.56790400
326.28	3.63731600	1.52972200
327.35	3.65014600	1.49105400
328.44	3.66022300	1.45223600
329.53	3.66765100	1.41357800
330.63	3.67257000	1.37535300
331.73	3.67514500	1.33779300
332.85	3.67556200	1.30109600
333.97	3.67401500	1.26541600
335.10	3.67070300	1.23087600
336.23	3.66582100	1.19756400
337.37	3.65956100	1.16554200
338.53	3.65137300	1.13459000
339.69	3.64289700	1.10523800
340.85	3.63354800	1.07721900
342.03	3.62347100	1.05051500
343.21	3.61279500	1.02509800
344.40	3.60163600	1.00093000
345.60	3.59009800	0.97796700
346.81	3.57827500	0.95616200
348.03	3.56624700	0.93546400
349.25	3.55408500	0.91582000
350.49	3.54185000	0.89717700
351.73	3.52959800	0.87948200
352.98	3.51737400	0.86268300
354.24	3.50521800	0.84672900
355.51	3.49316300	0.83157100
356.79	3.48123800	0.81716100
358.08	3.46946700	0.80345300
359.38	3.45787000	0.79040500
360.68	3.44646500	0.77797400
362.00	3.43526300	0.76612300
363.33	3.42427600	0.75481100
364.66	3.41351200	0.74400600
366.01	3.40297800	0.73367300
367.36	3.39227900	0.72389200
368.73	3.38220300	0.71441500
370.11	3.37236500	0.70532000
371.49	3.36276700	0.69658200
372.89	3.35340600	0.68817500
374.29	3.34414000	0.68011500
375.71	3.33524500	0.67230200
377.14	3.32625700	0.66474600
378.58	3.31782200	0.65744000
380.03	3.30961000	0.65035700
381.49	3.30161500	0.64347900
382.97	3.29383100	0.63679000
384.45	3.28625100	0.63027200
385.95	3.27886700	0.62390900
387.45	3.27167100	0.61768600
388.97	3.26465200	0.61158900
390.50	3.25779900	0.60560500
392.05	3.25109900	0.59972100
393.60	3.24453400	0.59392500
395.17	3.23808800	0.58820800
396.75	3.23173600	0.58256300
398.35	3.22545000	0.57698600
399.95	3.21919300	0.57147700
401.57	3.21291900	0.56604900
403.20	3.20656700	0.56072700
404.85	3.20005700	0.55556500
406.51	3.19328200	0.55066800
408.18	3.18610500	0.54624000
409.87	3.17838200	0.54268300
411.57	3.17007100	0.54081100
413.28	3.16176000	0.54221300
415.01	3.15592600	0.55004200
416.76	3.16274100	0.56052700
418.52	3.18372300	0.55697900
420.29	3.19447700	0.53266000
422.08	3.18724100	0.50989400
423.88	3.17542000	0.49596700
425.70	3.16399000	0.48729900
427.54	3.15391600	0.48131600
429.39	3.14510000	0.47673300
431.25	3.13714800	0.47295300
433.14	3.13015300	0.46959900
435.04	3.12380900	0.46652500
436.95	3.11800300	0.46363100
438.89	3.11265200	0.46085300
440.84	3.10769500	0.45815100
442.80	3.10308400	0.45549900
444.79	3.09878300	0.45287500
446.79	3.09476200	0.45026500
448.82	3.09100000	0.44765800
450.86	3.08747700	0.44504300
452.91	3.08417800	0.44241300
454.99	3.08108900	0.43976000
457.09	3.07820000	0.43707700
459.20	3.07550000	0.43435900
461.34	3.07298200	0.43159900
463.50	3.07063800	0.42879200
465.67	3.06846200	0.42593200
467.87	3.06644600	0.42301300
470.09	3.06458600	0.42003000
472.32	3.06287800	0.41697600
474.58	3.06131500	0.41384700
476.87	3.05974600	0.41064500
479.17	3.05846500	0.40734400
481.50	3.05731700	0.40394800
483.84	3.05629700	0.40045000
486.22	3.05496000	0.39687400
488.61	3.05419600	0.39314800
491.03	3.05354500	0.38929800
493.47	3.05300400	0.38531400
495.94	3.05256600	0.38118800
498.43	3.05222700	0.37690900
500.95	3.05198100	0.37246700
503.49	3.05182100	0.36785100
506.06	3.05173800	0.36305000
508.66	3.05172400	0.35805100
511.28	3.05176900	0.35283900
513.93	3.05186200	0.34740000
516.60	3.05198700	0.34171800
519.31	3.05212900	0.33577500
522.04	3.05226600	0.32955200
524.80	3.05237500	0.32303100
527.60	3.05242400	0.31618800
530.42	3.05237400	0.30900200
533.27	3.05217600	0.30145000
536.15	3.05176700	0.29351100
539.07	3.05106200	0.28516800
542.01	3.04994900	0.27641100
544.99	3.04827500	0.26725400
548.00	3.04582900	0.25774900
551.05	3.04231500	0.24803400
554.12	3.03667800	0.23875300
557.24	3.02956800	0.23009900
560.39	3.01991500	0.22394900
563.57	3.00821500	0.22381100
566.79	3.00004700	0.23543500
570.05	3.01351600	0.25689000
573.34	3.05754500	0.25345000
576.68	3.08371100	0.20681500
580.05	3.07356600	0.16165300
583.46	3.05150300	0.13377500
586.91	3.02938100	0.11729600
590.41	3.00908300	0.10678500
593.94	2.99182800	0.09983600
597.52	2.97654700	0.09482400
601.14	2.96283800	0.09100500
604.81	2.95038500	0.08796400
608.52	2.93894600	0.08545400
612.27	2.92834200	0.08332000
616.08	2.91843500	0.08146300
619.93	2.90911800	0.07981400
623.82	2.90030900	0.07832700
627.77	2.89194100	0.07696700
631.77	2.88396100	0.07571100
635.82	2.87632500	0.07454000
639.92	2.86899600	0.07343900
644.08	2.86194400	0.07239800
648.29	2.85514300	0.07140800
652.55	2.84857200	0.07046200
656.88	2.84221100	0.06955400
661.25	2.83604400	0.06868000
665.69	2.83005700	0.06783700
670.19	2.82423700	0.06702000
674.75	2.81857300	0.06622800
679.37	2.81305500	0.06545900
684.06	2.80767500	0.06470900
688.81	2.80242400	0.06397800
693.62	2.79729500	0.06326400
698.51	2.79228200	0.06256600
703.46	2.78737800	0.06188200
708.49	2.78257900	0.06121300
713.58	2.77788000	0.06055600
718.75	2.77327600	0.05991200
724.00	2.76876300	0.05927900
729.32	2.76433800	0.05865700
734.73	2.75999500	0.05804500
740.21	2.75573300	0.05744300
745.78	2.75154900	0.05685100
751.43	2.74743900	0.05626700
757.16	2.74340100	0.05569200
762.99	2.73943300	0.05512500
768.90	2.73553100	0.05456600
774.91	2.73169500	0.05401500
781.01	2.72792100	0.05347100
787.21	2.72420900	0.05293400
793.51	2.72055500	0.05240400
799.90	2.71695900	0.05188000
806.41	2.71341900	0.05136300
813.02	2.70993300	0.05085100
819.74	2.70650100	0.05034600
826.57	2.70311900	0.04984700
833.51	2.69978800	0.04935300
840.58	2.69609400	0.04882800
847.76	2.69286100	0.04834500
855.07	2.68967400	0.04786800
862.51	2.68636100	0.04739200
870.07	2.68326800	0.04692500
877.77	2.68021800	0.04646200
885.61	2.67721000	0.04600300
893.59	2.67424400	0.04555000
901.71	2.67131900	0.04510000
909.98	2.66843400	0.04465500
918.41	2.66558700	0.04421400
926.99	2.66278000	0.04377800
935.74	2.65949800	0.04333800
944.65	2.65677200	0.04291000
953.73	2.65408200	0.04248500
962.99	2.65142800	0.04206400
972.43	2.64880800	0.04164700
982.06	2.64622200	0.04123300
991.88	2.64367100	0.04082300
1001.90	2.64115200	0.04041600
1012.12	2.63866600	0.04001300
1022.56	2.63621200	0.03961300
1033.21	2.63379000	0.03921600
1044.09	2.63139800	0.03882300
1055.19	2.62903700	0.03843200
1066.54	2.62670700	0.03804500
1078.13	2.62440600	0.03766100
1089.98	2.62213400	0.03727900
1102.09	2.61989200	0.03690100
1114.47	2.61767700	0.03652500
1127.14	2.61549100	0.03615200
1140.09	2.61333300	0.03578200
1153.35	2.61120200	0.03541400
1166.92	2.60909700	0.03504900
1180.81	2.60702000	0.03468700
1195.04	2.60496900	0.03432700
1209.61	2.60294400	0.03397000
1224.55	2.60094400	0.03361500
1239.85	2.59897000	0.03326300
1255.55	2.59702100	0.03291300
1271.64	2.59509700	0.03256500
1288.16	2.59319700	0.03222000
1305.11	2.59132200	0.03187700
1322.51	2.58947000	0.03153500
1340.38	2.58764200	0.03119700
1358.74	2.58583800	0.03086000
1377.61	2.58405700	0.03052500
1397.02	2.58229800	0.03019300
1416.97	2.58056300	0.02986200
1437.51	2.57885000	0.02953300
1458.65	2.57715900	0.02920700
1480.42	2.57549000	0.02888200
1502.85	2.57384300	0.02855900
1525.97	2.57221800	0.02823800
1549.81	2.57061400	0.02791900
1574.41	2.56903200	0.02760100
1599.81	2.56747000	0.02728600
1626.04	2.56593000	0.02697200
1653.14	2.56441000	0.02665900
1681.16	2.56291100	0.02634900
1710.14	2.56143200	0.02604000
1740.14	2.55997300	0.02573200
1771.22	2.55853400	0.02542600
